* Sea-Bird SBE19plus Data File:
* FileName = C:\data\otf\2007\ctd-07131.hex
* Software Version 1.55
* Temperature SN =  5061
* Conductivity SN =  5061
* System UpLoad Time = Aug 15 2007 17:25:26
* ds
* SeacatPlus V 1.6a  SERIAL NO. 5061    15 Aug 2007  15:31:53
* vbatt = 10.9, vlith =  8.7, ioper =  61.6 ma, ipump =  57.5 ma, 
* iext01 =  95.2 ma
* iext23 =  58.1 ma
* 
* status = not logging
* number of scans to average = 1
* samples = 153039, free = 288466, casts = 154
* mode = profile, minimum cond freq = 3000, pump delay = 60 sec
* autorun = no, ignore magnetic switch = no
* battery type = alkaline, battery cutoff =  7.3 volts
* pressure sensor = strain gauge, range = 870.0
* SBE 38 = no, Gas Tension Device = no
* Ext Volt 0 = yes, Ext Volt 1 = yes, Ext Volt 2 = yes, Ext Volt 3 = yes
* echo commands = yes
* output format = raw HEX
* S>
* 
* SeacatPlus V 1.6a  SERIAL NO. 5061    15 Aug 2007  15:32:18
* temperature:  05-oct-06
*     TA0 = 1.254184e-03
*     TA1 = 2.596730e-04
*     TA2 = 5.165612e-07
*     TA3 = 1.318931e-07
*     TOFFSET = 0.000000e+00
* conductivity:  05-oct-06
*     G = -9.978144e-01
*     H = 1.555200e-01
*     I = -4.839108e-04
*     J = 6.121100e-05
*     CF0 = 2.539936e+03
*     CPCOR = -9.570000e-08
*     CTCOR = 3.250000e-06
*     CSLOPE = 1.000000e+00
* pressure S/N = 2362539, range = 870 psia:  24-aug-06
*     PA0 = 2.171091e-01
*     PA1 = 2.647085e-03
*     PA2 = 1.419397e-11
*     PTCA0 = 5.242437e+05
*     PTCA1 = 7.545345e+00
*     PTCA2 = -1.835354e-01
*     PTCB0 = 2.537125e+01
*     PTCB1 = -1.750000e-03
*     PTCB2 = 0.000000e+00
*     PTEMPA0 = -5.753989e+01
*     PTEMPA1 = 5.235813e+01
*     PTEMPA2 = -4.015521e-02
*     POFFSET = 0.000000e+00
* volt 0: offset = -4.682842e-02, slope = 1.249147e+00
* volt 1: offset = -4.695158e-02, slope = 1.248145e+00
* volt 2: offset = -4.685263e-02, slope = 1.248783e+00
* volt 3: offset = -4.690316e-02, slope = 1.249508e+00
*     EXTFREQSF = 1.000002e+00
* dh
* cast 131 26 Jul 2007 08:03:33 samples 128138 to 129424, avg = 1, stop = mag switch
* S> 
# nquan = 10
# nvalues = 143                         
# units = specified
# name 0 = depSM: Depth [salt water, m]
# name 1 = tv290C: Temperature [ITS-90, deg C]
# name 2 = sal00: Salinity [PSU]
# name 3 = sbeox0Mg/L: Oxygen, SBE 43 [mg/l]
# name 4 = sbeox0PS: Oxygen, SBE 43 [% saturation]
# name 5 = sigma-t00: Density [sigma-t, Kg/m^3 ]
# name 6 = par: PAR/Irradiance, Biospherical/Licor
# name 7 = prdM: Pressure, Strain Gauge [db]
# name 8 = flECO-AFL: Fluorescence, Wetlab ECO-AFL/FL [mg/m^3]
# name 9 = flag: flag
# span 0 =      1.000,     74.000       
# span 1 =     8.3304,     9.3248       
# span 2 =    31.1387,    31.7374       
# span 3 =    8.26623,    9.51204       
# span 4 =   87.17800,  100.16180       
# span 5 =    24.0473,    24.6646       
# span 6 = 1.5543e+00, 1.2030e+02       
# span 7 =      1.070,     74.481       
# span 8 =     0.8997,     1.2307       
# span 9 = 0.0000e+00, 0.0000e+00       
# interval = meters: 1                  
# start_time = Jul 26 2007 08:03:33
# bad_flag = -9.990e-29
# sensor 0 = Frequency 0  temperature, 5061, 05-Oct-06
# sensor 1 = Frequency 1  conductivity, 5061, 05-Oct-06, cpcor = -9.5700e-08
# sensor 2 = Pressure Number
# sensor 3 = Extrnl Volt  0  irradiance (PAR), primary, 4751, 08/10/06
# sensor 4 = Extrnl Volt  1  Oxygen, SBE, primary, 1081, 10/24/06
# sensor 5 = Extrnl Volt  2  WET Labs, ECO_AFL
# sensor 6 = Extrnl Volt  3  userpoly 0, 0627, 10/11/06
# datcnv_date = Oct 15 2007 14:49:52, 5.37e
# datcnv_in = I:\bob d\OTF_GEM\2007\ctd-07131.hex I:\Willette\OTF\CTD\5061.con
# datcnv_skipover = 0
# filter_date = Oct 15 2007 15:02:40, 5.37e
# filter_in = I:\Willette\OTF\CTD\2007\CTD Data\ctd-07131.cnv
# filter_low_pass_tc_A = 1.000
# filter_low_pass_tc_B = 0.150
# filter_low_pass_A_vars = prdM
# filter_low_pass_B_vars =
# loopedit_date = Oct 15 2007 15:06:58, 5.37e
# loopedit_in = I:\Willette\OTF\CTD\2007\CTD Data\ctd-07131.cnv
# loopedit_minVelocity = 0.250                                                                                            
# loopedit_surfaceSoak: minDepth = 5.0, maxDepth = 20, useDeckPress = 1                                                   
# loopedit_excl_bad_scans = yes
# alignctd_date = Oct 15 2007 15:14:23, 5.37e
# alignctd_in = I:\Willette\OTF\CTD\2007\CTD Data\ctd-07131.cnv
# alignctd_adv = tv290C 0.500, sbeox0Mg/L 4.000, sbeox0PS 4.000                                                                                                                                                                      
# binavg_date = Oct 15 2007 15:18:52, 5.37e
# binavg_in = I:\Willette\OTF\CTD\2007\CTD Data\ctd-07131.cnv
# binavg_bintype = meters
# binavg_binsize = 1
# binavg_excl_bad_scans = yes
# binavg_skipover = 0
# binavg_surface_bin = no, min = 0.000, max = 0.000, value = 0.000
# file_type = ascii
*END*
      5.000     9.0982    31.3138    8.34398   88.15836    24.2097 3.6439e+01      5.057     1.1070 0.0000e+00
      6.000     9.0055    31.3896    8.32754   87.96084    24.2861 3.1429e+01      6.013     1.1322 0.0000e+00
      7.000     8.9312    31.4586    8.26623   87.17800    24.3530 2.6840e+01      6.972     1.1850 0.0000e+00
      8.000     8.8549    31.5552    8.28326   87.18214    24.4418 2.3290e+01      8.101     1.1633 0.0000e+00
      9.000     8.7592    31.5436    8.53610   89.67523    24.4428 2.0403e+01      9.188     1.1802 0.0000e+00
     10.000     8.7085    31.6011    8.65971   90.93173    24.5011 1.7735e+01     10.207     1.1636 0.0000e+00
     11.000     8.6464    31.5979    8.69146   91.20962    24.5024 1.5782e+01     11.222     1.1549 0.0000e+00
     12.000     8.5903    31.6451    8.73532   91.63455    24.5507 1.4110e+01     12.120     1.1452 0.0000e+00
     13.000     8.5751    31.6740    8.79330   92.22919    24.5779 1.2603e+01     13.089     1.1453 0.0000e+00
     14.000     8.5491    31.6827    8.82839   92.56263    24.5876 1.1227e+01     14.132     1.1291 0.0000e+00
     15.000     8.5231    31.6914    8.91947   93.48007    24.5986 9.9900e+00     15.195     1.2089 0.0000e+00
     16.000     8.5092    31.7015    9.01481   94.45239    24.6095 8.9307e+00     16.162     1.2051 0.0000e+00
     17.000     8.5046    31.7042    9.08541   95.17810    24.6127 7.9885e+00     17.210     1.1364 0.0000e+00
     18.000     8.4889    31.6809    9.12947   95.62842    24.5957 7.2487e+00     18.190     1.1461 0.0000e+00
     19.000     8.4749    31.6877    9.16278   95.97133    24.6033 6.6146e+00     19.103     1.1252 0.0000e+00
     20.000     8.4613    31.6934    9.19107   96.25600    24.6101 6.0425e+00     20.105     1.1023 0.0000e+00
     21.000     8.4545    31.6991    9.21589   96.50918    24.6162 5.5126e+00     21.150     1.0927 0.0000e+00
     22.000     8.4482    31.7007    9.24502   96.80490    24.6184 5.0371e+00     22.240     1.0890 0.0000e+00
     23.000     8.4424    31.7013    9.25935   96.93653    24.6195 4.6279e+00     23.236     1.0775 0.0000e+00
     24.000     8.4388    31.7042    9.27752   97.12285    24.6227 4.2597e+00     24.199     1.0747 0.0000e+00
     25.000     8.4352    31.7053    9.28990   97.24638    24.6240 3.9423e+00     25.187     1.0869 0.0000e+00
     26.000     8.4253    31.7057    9.29997   97.33998    24.6255 3.6694e+00     26.256     1.0692 0.0000e+00
     27.000     8.4225    31.7096    9.31304   97.47505    24.6293 3.4286e+00     27.235     1.0847 0.0000e+00
     28.000     8.4197    31.7094    9.32693   97.59376    24.6295 3.2048e+00     28.286     1.0985 0.0000e+00
     29.000     8.4134    31.7102    9.33247   97.63280    24.6309 3.0155e+00     29.273     1.0587 0.0000e+00
     30.000     8.4127    31.7121    9.34902   97.79258    24.6327 2.8494e+00     30.263     1.0605 0.0000e+00
     31.000     8.3992    31.7100    9.36065   97.90727    24.6322 2.6993e+00     31.292     1.0663 0.0000e+00
     32.000     8.3911    31.7172    9.36412   97.94316    24.6398 2.5720e+00     32.276     1.0461 0.0000e+00
     33.000     8.3830    31.7180    9.37439   98.03852    24.6414 2.4520e+00     33.265     1.0199 0.0000e+00
     34.000     8.3820    31.7228    9.38551   98.15297    24.6460 2.3433e+00     34.364     1.0260 0.0000e+00
     35.000     8.3777    31.7186    9.38670   98.15882    24.6426 2.2508e+00     35.355     1.0038 0.0000e+00
     36.000     8.3738    31.7229    9.39396   98.22797    24.6470 2.1707e+00     36.333     1.0362 0.0000e+00
     37.000     8.3736    31.7230    9.39819   98.27087    24.6471 2.1028e+00     37.325     0.9920 0.0000e+00
     38.000     8.3693    31.7231    9.40168   98.31046    24.6476 2.0514e+00     38.322     1.0161 0.0000e+00
     39.000     8.3668    31.7247    9.40571   98.35324    24.6495 1.9934e+00     39.405     1.0161 0.0000e+00
     40.000     8.3673    31.7252    9.41386   98.43038    24.6499 1.9343e+00     40.371     1.0189 0.0000e+00
     41.000     8.3694    31.7251    9.41686   98.44920    24.6494 1.8877e+00     41.386     1.0509 0.0000e+00
     42.000     8.3661    31.7237    9.42014   98.46843    24.6486 1.8503e+00     42.407     0.9817 0.0000e+00
     43.000     8.3621    31.7248    9.41795   98.44629    24.6500 1.8157e+00     43.381     1.0020 0.0000e+00
     44.000     8.3537    31.7272    9.42496   98.52033    24.6530 1.7856e+00     44.365     1.0356 0.0000e+00
     45.000     8.3516    31.7300    9.42958   98.57115    24.6559 1.7573e+00     45.458     1.0122 0.0000e+00
     46.000     8.3520    31.7299    9.42837   98.55935    24.6558 1.7336e+00     46.395     1.0331 0.0000e+00
     47.000     8.3533    31.7293    9.42962   98.56895    24.6551 1.7119e+00     47.460     1.0327 0.0000e+00
     48.000     8.3535    31.7288    9.44126   98.68904    24.6546 1.6936e+00     48.425     1.0498 0.0000e+00
     49.000     8.3511    31.7292    9.44607   98.73922    24.6552 1.6768e+00     49.520     1.0229 0.0000e+00
     50.000     8.3518    31.7300    9.44712   98.75441    24.6559 1.6625e+00     50.475     1.0586 0.0000e+00
     51.000     8.3510    31.7299    9.43881   98.67971    24.6558 1.6496e+00     51.467     1.1353 0.0000e+00
     52.000     8.3546    31.7302    9.43650   98.65232    24.6558 1.6381e+00     52.465     1.2198 0.0000e+00
     53.000     8.3588    31.7272    9.44937   98.78381    24.6525 1.6275e+00     53.542     1.2140 0.0000e+00
     54.000     8.3562    31.7279    9.44837   98.77255    24.6535 1.6190e+00     54.517     1.2121 0.0000e+00
     55.000     8.3563    31.7283    9.44595   98.73443    24.6539 1.6109e+00     55.541     1.2307 0.0000e+00
     56.000     8.3541    31.7277    9.44964   98.77156    24.6535 1.6038e+00     56.520     1.2113 0.0000e+00
     57.000     8.3486    31.7299    9.45741   98.84992    24.6562 1.5975e+00     57.537     1.1977 0.0000e+00
     58.000     8.3486    31.7308    9.45202   98.78402    24.6569 1.5916e+00     58.565     1.1925 0.0000e+00
     59.000     8.3467    31.7307    9.45205   98.78093    24.6571 1.5870e+00     59.563     1.1876 0.0000e+00
     60.000     8.3416    31.7322    9.46162   98.88013    24.6590 1.5828e+00     60.584     1.1718 0.0000e+00
     61.000     8.3394    31.7319    9.46344   98.90757    24.6588 1.5787e+00     61.601     1.1758 0.0000e+00
     62.000     8.3413    31.7351    9.46432   98.90153    24.6617 1.5755e+00     62.616     1.1740 0.0000e+00
     63.000     8.3452    31.7309    9.46341   98.88949    24.6574 1.5720e+00     63.612     1.1935 0.0000e+00
     64.000     8.3378    31.7332    9.46686   98.92535    24.6602 1.5691e+00     64.607     1.1979 0.0000e+00
     65.000     8.3360    31.7343    9.46269   98.88310    24.6614 1.5669e+00     65.646     1.1965 0.0000e+00
     66.000     8.3360    31.7348    9.46858   98.94716    24.6619 1.5646e+00     66.660     1.1865 0.0000e+00
     67.000     8.3364    31.7345    9.46783   98.93329    24.6617 1.5627e+00     67.621     1.2121 0.0000e+00
     68.000     8.3378    31.7344    9.46569   98.90836    24.6614 1.5609e+00     68.625     1.2062 0.0000e+00
     69.000     8.3352    31.7339    9.47536   99.00951    24.6611 1.5595e+00     69.672     1.2152 0.0000e+00
     70.000     8.3335    31.7355    9.47863   99.05085    24.6627 1.5580e+00     70.730     1.1764 0.0000e+00
     71.000     8.3329    31.7359    9.47589   99.01531    24.6632 1.5572e+00     71.666     1.1744 0.0000e+00
     72.000     8.3366    31.7363    9.47683   99.01577    24.6632 1.5560e+00     72.682     1.1786 0.0000e+00
     73.000     8.3348    31.7337    9.46372   98.87986    24.6610 1.5552e+00     73.678     1.1774 0.0000e+00
     74.000     8.3304    31.7364    9.46658   98.91512    24.6639 1.5543e+00     74.481     1.1787 0.0000e+00
     73.000     8.3329    31.7374    9.46882   98.94615    24.6646 1.5550e+00     73.656     1.1775 0.0000e+00
     72.000     8.3353    31.7357    9.46692   98.92806    24.6628 1.5559e+00     72.723     1.1916 0.0000e+00
     71.000     8.3361    31.7352    9.46931   98.95019    24.6622 1.5568e+00     71.656     1.1700 0.0000e+00
     70.000     8.3371    31.7349    9.47667   99.02724    24.6619 1.5579e+00     70.615     1.1361 0.0000e+00
     69.000     8.3358    31.7345    9.47762   99.03599    24.6616 1.5592e+00     69.699     1.1022 0.0000e+00
     68.000     8.3355    31.7351    9.47191   98.97513    24.6622 1.5601e+00     68.684     1.2143 0.0000e+00
     67.000     8.3351    31.7349    9.46903   98.94503    24.6621 1.5619e+00     67.639     1.1634 0.0000e+00
     66.000     8.3344    31.7352    9.46992   98.95656    24.6624 1.5632e+00     66.626     1.1843 0.0000e+00
     65.000     8.3344    31.7354    9.46504   98.90698    24.6626 1.5657e+00     65.622     1.1930 0.0000e+00
     64.000     8.3355    31.7352    9.46719   98.93023    24.6623 1.5678e+00     64.621     1.2035 0.0000e+00
     63.000     8.3364    31.7345    9.46685   98.92838    24.6616 1.5705e+00     63.621     1.2057 0.0000e+00
     62.000     8.3367    31.7344    9.46747   98.93592    24.6615 1.5733e+00     62.608     1.1544 0.0000e+00
     61.000     8.3376    31.7343    9.47472   99.01168    24.6613 1.5765e+00     61.568     1.1472 0.0000e+00
     60.000     8.3381    31.7338    9.47444   99.01136    24.6608 1.5807e+00     60.576     1.1459 0.0000e+00
     59.000     8.3381    31.7338    9.47527   99.02382    24.6608 1.5850e+00     59.582     1.1168 0.0000e+00
     58.000     8.3395    31.7338    9.47514   99.02379    24.6607 1.5894e+00     58.569     1.1340 0.0000e+00
     57.000     8.3415    31.7332    9.46537   98.92411    24.6599 1.5944e+00     57.536     1.1261 0.0000e+00
     56.000     8.3419    31.7326    9.47069   98.97705    24.6594 1.6010e+00     56.524     1.0868 0.0000e+00
     55.000     8.3431    31.7323    9.47425   99.01489    24.6589 1.6073e+00     55.531     1.0935 0.0000e+00
     54.000     8.3415    31.7323    9.47871   99.05873    24.6591 1.6153e+00     54.528     1.0422 0.0000e+00
     53.000     8.3422    31.7327    9.47686   99.04220    24.6594 1.6238e+00     53.523     0.9908 0.0000e+00
     52.000     8.3411    31.7326    9.47973   99.07352    24.6594 1.6341e+00     52.480     0.9964 0.0000e+00
     51.000     8.3421    31.7323    9.47694   99.04419    24.6591 1.6448e+00     51.477     1.0216 0.0000e+00
     50.000     8.3425    31.7320    9.47141   98.99193    24.6587 1.6575e+00     50.513     0.9906 0.0000e+00
     49.000     8.3435    31.7325    9.46623   98.94882    24.6591 1.6715e+00     49.446     1.0125 0.0000e+00
     48.000     8.3462    31.7312    9.47594   99.06363    24.6577 1.6876e+00     48.463     1.0070 0.0000e+00
     47.000     8.3531    31.7309    9.48073   99.11968    24.6567 1.7065e+00     47.481     1.0364 0.0000e+00
     46.000     8.3589    31.7277    9.47533   99.05266    24.6531 1.7271e+00     46.431     1.0182 0.0000e+00
     45.000     8.3601    31.7266    9.47435   99.03057    24.6519 1.7505e+00     45.417     1.0415 0.0000e+00
     44.000     8.3516    31.7276    9.47702   99.05698    24.6537 1.7777e+00     44.444     1.0192 0.0000e+00
     43.000     8.3494    31.7296    9.48441   99.15731    24.6559 1.8066e+00     43.397     0.9959 0.0000e+00
     42.000     8.3486    31.7305    9.48084   99.12540    24.6568 1.8422e+00     42.389     0.9860 0.0000e+00
     41.000     8.3653    31.7275    9.47672   99.06963    24.6523 1.8815e+00     41.414     0.9564 0.0000e+00
     40.000     8.3571    31.7254    9.48278   99.13705    24.6511 1.9227e+00     40.372     0.9623 0.0000e+00
     39.000     8.3572    31.7278    9.48253   99.13353    24.6534 1.9718e+00     39.357     0.9491 0.0000e+00
     38.000     8.3580    31.7267    9.47367   99.04848    24.6523 2.0277e+00     38.375     0.9229 0.0000e+00
     37.000     8.3590    31.7273    9.47603   99.07886    24.6528 2.0869e+00     37.313     0.9604 0.0000e+00
     36.000     8.3630    31.7263    9.47410   99.06058    24.6514 2.1541e+00     36.279     0.8997 0.0000e+00
     35.000     8.3641    31.7252    9.47881   99.11051    24.6503 2.2322e+00     35.252     0.9124 0.0000e+00
     34.000     8.3646    31.7251    9.48065   99.13153    24.6502 2.3214e+00     34.252     0.9346 0.0000e+00
     33.000     8.3657    31.7249    9.48180   99.14236    24.6499 2.4228e+00     33.313     0.9327 0.0000e+00
     32.000     8.3653    31.7243    9.47908   99.13099    24.6493 2.5644e+00     32.259     0.9335 0.0000e+00
     31.000     8.3666    31.7249    9.47424   99.12155    24.6498 2.6933e+00     31.247     0.9011 0.0000e+00
     30.000     8.3657    31.7237    9.47186   99.12099    24.6487 2.8011e+00     30.259     0.9151 0.0000e+00
     29.000     8.3681    31.7256    9.46379   99.05951    24.6504 2.9615e+00     29.239     0.9206 0.0000e+00
     28.000     8.3855    31.7279    9.45899   99.02300    24.6508 3.1773e+00     28.259     0.9204 0.0000e+00
     27.000     8.4001    31.7199    9.45083   98.94638    24.6417 3.3829e+00     27.302     0.9492 0.0000e+00
     26.000     8.4108    31.7152    9.44610   98.90420    24.6363 3.6177e+00     26.279     0.9604 0.0000e+00
     25.000     8.4210    31.7117    9.44798   98.93922    24.6319 3.8767e+00     25.252     0.9831 0.0000e+00
     24.000     8.4256    31.7084    9.45611   99.05023    24.6284 4.1824e+00     24.287     0.9564 0.0000e+00
     23.000     8.4311    31.7067    9.45787   99.07338    24.6261 4.5511e+00     23.272     0.9551 0.0000e+00
     22.000     8.4371    31.7063    9.45350   99.02093    24.6253 4.9830e+00     22.320     0.9972 0.0000e+00
     21.000     8.4512    31.7002    9.46085   99.10008    24.6181 5.5068e+00     21.321     0.9749 0.0000e+00
     20.000     8.4495    31.6983    9.46797   99.16525    24.6163 6.0222e+00     20.239     0.9780 0.0000e+00
     19.000 -9.990e-29 -9.990e-29 -9.990e-29 -9.990e-29 -9.990e-29 -9.990e-29 -9.990e-29 -9.990e-29 -9.990e-29
     18.000 -9.990e-29 -9.990e-29 -9.990e-29 -9.990e-29 -9.990e-29 -9.990e-29 -9.990e-29 -9.990e-29 -9.990e-29
     17.000     8.4669    31.6937    9.47103   99.24433    24.6105 8.7996e+00     16.792     1.0271 0.0000e+00
     16.000     8.4688    31.6921    9.45836   99.11812    24.6090 9.4613e+00     16.138     1.0019 0.0000e+00
     15.000     8.4731    31.6902    9.46425   99.19818    24.6070 1.0564e+01     15.130     1.0006 0.0000e+00
     14.000     8.4815    31.6861    9.46898   99.29752    24.6025 1.1904e+01     14.118     1.0006 0.0000e+00
     13.000     8.4962    31.6800    9.46578   99.37300    24.5960 1.3283e+01     13.125     1.0068 0.0000e+00
     12.000     8.5385    31.6642    9.46771   99.49800    24.5785 1.5131e+01     12.074     1.0251 0.0000e+00
     11.000     8.5982    31.6335    9.46056   99.47727    24.5457 1.7263e+01     11.105     1.0711 0.0000e+00
     10.000     8.6243    31.6118    9.45633   99.56957    24.5235 1.9707e+01     10.103     1.0787 0.0000e+00
      9.000     8.6795    31.5926    9.44367   99.53000    24.5026 2.2717e+01      9.025     1.0848 0.0000e+00
      8.000     8.7323    31.5520    9.43875   99.71192    24.4615 2.6264e+01      8.060     1.0710 0.0000e+00
      7.000     8.7730    31.5338    9.44132   99.91911    24.4426 3.0321e+01      7.086     1.0802 0.0000e+00
      6.000     8.9032    31.4621    9.42799  100.02947    24.3693 3.5406e+01      6.040     1.1059 0.0000e+00
      5.000     9.0050    31.3828    9.42418  100.16180    24.2903 4.1475e+01      5.027     1.1149 0.0000e+00
      4.000     9.1268    31.3109    9.41439  100.15082    24.2181 4.7777e+01      4.045     1.1378 0.0000e+00
      3.000     9.2361    31.2032    9.40308  100.09928    24.1128 5.3951e+01      3.007     1.2150 0.0000e+00
      2.000     9.2807    31.1730    9.35692   99.58504    24.0824 6.4302e+01      2.058     1.1790 0.0000e+00
      1.000     9.3248    31.1387    9.51204   98.42244    24.0473 1.2030e+02      1.070     1.1967 0.0000e+00
