* Sea-Bird SBE19plus Data File:
* FileName = C:\data\otf\2007\ctd-07116.hex
* Software Version 1.55
* Temperature SN =  5061
* Conductivity SN =  5061
* System UpLoad Time = Aug 15 2007 16:44:18
* ds
* SeacatPlus V 1.6a  SERIAL NO. 5061    15 Aug 2007  15:31:53
* vbatt = 10.9, vlith =  8.7, ioper =  61.6 ma, ipump =  57.5 ma, 
* iext01 =  95.2 ma
* iext23 =  58.1 ma
* 
* status = not logging
* number of scans to average = 1
* samples = 153039, free = 288466, casts = 154
* mode = profile, minimum cond freq = 3000, pump delay = 60 sec
* autorun = no, ignore magnetic switch = no
* battery type = alkaline, battery cutoff =  7.3 volts
* pressure sensor = strain gauge, range = 870.0
* SBE 38 = no, Gas Tension Device = no
* Ext Volt 0 = yes, Ext Volt 1 = yes, Ext Volt 2 = yes, Ext Volt 3 = yes
* echo commands = yes
* output format = raw HEX
* S>
* 
* SeacatPlus V 1.6a  SERIAL NO. 5061    15 Aug 2007  15:32:18
* temperature:  05-oct-06
*     TA0 = 1.254184e-03
*     TA1 = 2.596730e-04
*     TA2 = 5.165612e-07
*     TA3 = 1.318931e-07
*     TOFFSET = 0.000000e+00
* conductivity:  05-oct-06
*     G = -9.978144e-01
*     H = 1.555200e-01
*     I = -4.839108e-04
*     J = 6.121100e-05
*     CF0 = 2.539936e+03
*     CPCOR = -9.570000e-08
*     CTCOR = 3.250000e-06
*     CSLOPE = 1.000000e+00
* pressure S/N = 2362539, range = 870 psia:  24-aug-06
*     PA0 = 2.171091e-01
*     PA1 = 2.647085e-03
*     PA2 = 1.419397e-11
*     PTCA0 = 5.242437e+05
*     PTCA1 = 7.545345e+00
*     PTCA2 = -1.835354e-01
*     PTCB0 = 2.537125e+01
*     PTCB1 = -1.750000e-03
*     PTCB2 = 0.000000e+00
*     PTEMPA0 = -5.753989e+01
*     PTEMPA1 = 5.235813e+01
*     PTEMPA2 = -4.015521e-02
*     POFFSET = 0.000000e+00
* volt 0: offset = -4.682842e-02, slope = 1.249147e+00
* volt 1: offset = -4.695158e-02, slope = 1.248145e+00
* volt 2: offset = -4.685263e-02, slope = 1.248783e+00
* volt 3: offset = -4.690316e-02, slope = 1.249508e+00
*     EXTFREQSF = 1.000002e+00
* dh
* cast 116 22 Jul 2007 14:39:30 samples 77782 to 78546, avg = 1, stop = mag switch
* S> 
# nquan = 10
# nvalues = 83                          
# units = specified
# name 0 = depSM: Depth [salt water, m]
# name 1 = tv290C: Temperature [ITS-90, deg C]
# name 2 = sal00: Salinity [PSU]
# name 3 = sbeox0Mg/L: Oxygen, SBE 43 [mg/l]
# name 4 = sbeox0PS: Oxygen, SBE 43 [% saturation]
# name 5 = sigma-t00: Density [sigma-t, Kg/m^3 ]
# name 6 = par: PAR/Irradiance, Biospherical/Licor
# name 7 = prdM: Pressure, Strain Gauge [db]
# name 8 = flECO-AFL: Fluorescence, Wetlab ECO-AFL/FL [mg/m^3]
# name 9 = flag: flag
# span 0 =      1.000,     44.000       
# span 1 =     8.7104,     8.7722       
# span 2 =    31.4347,    31.6048       
# span 3 =    8.07044,    9.56115       
# span 4 =   84.97916,  100.76571       
# span 5 =    24.3639,    24.4967       
# span 6 = 1.9562e+00, 2.5444e+02       
# span 7 =      1.073,     44.046       
# span 8 =     1.3256,     1.5637       
# span 9 = 0.0000e+00, 0.0000e+00       
# interval = meters: 1                  
# start_time = Jul 22 2007 14:39:30
# bad_flag = -9.990e-29
# sensor 0 = Frequency 0  temperature, 5061, 05-Oct-06
# sensor 1 = Frequency 1  conductivity, 5061, 05-Oct-06, cpcor = -9.5700e-08
# sensor 2 = Pressure Number
# sensor 3 = Extrnl Volt  0  irradiance (PAR), primary, 4751, 08/10/06
# sensor 4 = Extrnl Volt  1  Oxygen, SBE, primary, 1081, 10/24/06
# sensor 5 = Extrnl Volt  2  WET Labs, ECO_AFL
# sensor 6 = Extrnl Volt  3  userpoly 0, 0627, 10/11/06
# datcnv_date = Oct 15 2007 14:49:48, 5.37e
# datcnv_in = I:\bob d\OTF_GEM\2007\ctd-07116.hex I:\Willette\OTF\CTD\5061.con
# datcnv_skipover = 0
# filter_date = Oct 15 2007 15:02:31, 5.37e
# filter_in = I:\Willette\OTF\CTD\2007\CTD Data\ctd-07116.cnv
# filter_low_pass_tc_A = 1.000
# filter_low_pass_tc_B = 0.150
# filter_low_pass_A_vars = prdM
# filter_low_pass_B_vars =
# loopedit_date = Oct 15 2007 15:06:52, 5.37e
# loopedit_in = I:\Willette\OTF\CTD\2007\CTD Data\ctd-07116.cnv
# loopedit_minVelocity = 0.250                                                                                            
# loopedit_surfaceSoak: minDepth = 5.0, maxDepth = 20, useDeckPress = 1                                                   
# loopedit_excl_bad_scans = yes
# alignctd_date = Oct 15 2007 15:14:19, 5.37e
# alignctd_in = I:\Willette\OTF\CTD\2007\CTD Data\ctd-07116.cnv
# alignctd_adv = tv290C 0.500, sbeox0Mg/L 4.000, sbeox0PS 4.000                                                                                                                                                                      
# binavg_date = Oct 15 2007 15:18:47, 5.37e
# binavg_in = I:\Willette\OTF\CTD\2007\CTD Data\ctd-07116.cnv
# binavg_bintype = meters
# binavg_binsize = 1
# binavg_excl_bad_scans = yes
# binavg_skipover = 0
# binavg_surface_bin = no, min = 0.000, max = 0.000, value = 0.000
# file_type = ascii
*END*
      5.000     8.7416    31.4992    8.08125   85.17400    24.4151 8.7865e+01      5.129     1.4045 0.0000e+00
      6.000     8.7299    31.5142    8.07044   84.97916    24.4303 7.8113e+01      5.991     1.3955 0.0000e+00
      7.000     8.7674    31.6048    8.31419   87.57365    24.4967 6.8847e+01      7.157     1.4872 0.0000e+00
      8.000     8.7280    31.5117    8.32680   87.70877    24.4281 5.9090e+01      8.105     1.4379 0.0000e+00
      9.000     8.7277    31.5392    8.20988   86.53543    24.4507 5.1267e+01      8.960     1.4129 0.0000e+00
     10.000     8.7427    31.5778    8.12106   85.55220    24.4794 4.4151e+01     10.049     1.4337 0.0000e+00
     11.000     8.7603    31.5380    8.28682   87.28292    24.4440 3.8160e+01     11.203     1.4800 0.0000e+00
     12.000     8.7417    31.5353    8.57060   90.27811    24.4454 3.3285e+01     12.195     1.4513 0.0000e+00
     13.000     8.7409    31.5324    8.69437   91.58186    24.4433 2.9142e+01     13.220     1.4693 0.0000e+00
     14.000     8.7428    31.5374    8.80692   92.76988    24.4471 2.5307e+01     14.194     1.4879 0.0000e+00
     15.000     8.7436    31.5354    8.85486   93.27879    24.4453 2.2080e+01     15.251     1.4503 0.0000e+00
     16.000     8.7444    31.5354    8.85468   93.28275    24.4451 1.9320e+01     16.259     1.4984 0.0000e+00
     17.000     8.7430    31.5341    8.90622   93.82570    24.4443 1.6924e+01     17.185     1.4499 0.0000e+00
     18.000     8.7448    31.5389    8.94363   94.22461    24.4480 1.4787e+01     18.126     1.4668 0.0000e+00
     19.000     8.7461    31.5386    8.96388   94.44326    24.4475 1.2980e+01     19.206     1.5187 0.0000e+00
     20.000     8.7482    31.5413    8.93441   94.13320    24.4494 1.1491e+01     20.213     1.5464 0.0000e+00
     21.000     8.7482    31.5400    8.85727   93.31329    24.4482 1.0191e+01     21.179     1.5293 0.0000e+00
     22.000     8.7496    31.5424    8.92809   94.05763    24.4500 9.0683e+00     22.079     1.5087 0.0000e+00
     23.000     8.7508    31.5452    9.04787   95.32512    24.4519 8.0678e+00     22.978     1.4817 0.0000e+00
     24.000     8.7508    31.5417    9.19578   96.88985    24.4490 7.1669e+00     24.236     1.4903 0.0000e+00
     25.000     8.7503    31.5394    9.26356   97.60338    24.4475 6.4668e+00     25.297     1.5637 0.0000e+00
     26.000     8.7528    31.5445    9.29327   97.91972    24.4511 5.8416e+00     26.246     1.4301 0.0000e+00
     27.000     8.7533    31.5440    9.31828   98.18367    24.4506 5.3003e+00     27.312     1.3846 0.0000e+00
     28.000     8.7532    31.5432    9.32892   98.29599    24.4500 4.8380e+00     28.255     1.3884 0.0000e+00
     29.000     8.7541    31.5460    9.33932   98.40560    24.4520 4.4108e+00     29.249     1.4145 0.0000e+00
     30.000     8.7543    31.5459    9.35327   98.55401    24.4519 4.0409e+00     30.294     1.3708 0.0000e+00
     31.000     8.7543    31.5453    9.36532   98.68214    24.4514 3.7188e+00     31.358     1.3690 0.0000e+00
     32.000     8.7543    31.5460    9.37580   98.79217    24.4520 3.4546e+00     32.287     1.3839 0.0000e+00
     33.000     8.7550    31.5463    9.38393   98.87982    24.4521 3.2130e+00     33.331     1.3889 0.0000e+00
     34.000     8.7552    31.5464    9.38641   98.90606    24.4522 3.0081e+00     34.309     1.3672 0.0000e+00
     35.000     8.7552    31.5460    9.39504   98.99769    24.4518 2.8215e+00     35.382     1.3492 0.0000e+00
     36.000     8.7558    31.5471    9.40501   99.10163    24.4526 2.6662e+00     36.344     1.3685 0.0000e+00
     37.000     8.7559    31.5461    9.41460   99.20255    24.4517 2.5228e+00     37.373     1.4028 0.0000e+00
     38.000     8.7564    31.5473    9.42175   99.27886    24.4527 2.4025e+00     38.397     1.3830 0.0000e+00
     39.000     8.7560    31.5462    9.42260   99.28783    24.4518 2.2995e+00     39.308     1.3645 0.0000e+00
     40.000     8.7558    31.5462    9.42398   99.30110    24.4518 2.2010e+00     40.474     1.3489 0.0000e+00
     41.000     8.7561    31.5464    9.42376   99.29930    24.4520 2.1255e+00     41.426     1.3451 0.0000e+00
     42.000     8.7563    31.5466    9.41125   99.16834    24.4521 2.0567e+00     42.209     1.3585 0.0000e+00
     43.000     8.7560    31.5461    9.39975   99.04497    24.4517 1.9907e+00     43.166     1.3636 0.0000e+00
     44.000     8.7554    31.5459    9.40857   99.13619    24.4517 1.9562e+00     44.046     1.4008 0.0000e+00
     43.000     8.7578    31.5464    9.43576   99.42693    24.4518 1.9830e+00     43.315     1.3990 0.0000e+00
     42.000     8.7566    31.5459    9.43497   99.41831    24.4515 2.0459e+00     42.373     1.3278 0.0000e+00
     41.000     8.7566    31.5461    9.44144   99.48545    24.4517 2.1192e+00     41.419     1.3515 0.0000e+00
     40.000     8.7561    31.5460    9.44172   99.48905    24.4517 2.2043e+00     40.364     1.3602 0.0000e+00
     39.000     8.7559    31.5463    9.44067   99.47947    24.4520 2.3005e+00     39.351     1.4302 0.0000e+00
     38.000     8.7564    31.5465    9.44699   99.54627    24.4520 2.4114e+00     38.379     1.4174 0.0000e+00
     37.000     8.7567    31.5465    9.44999   99.57820    24.4520 2.5375e+00     37.370     1.3934 0.0000e+00
     36.000     8.7569    31.5469    9.44660   99.54253    24.4523 2.6910e+00     36.284     1.4176 0.0000e+00
     35.000     8.7568    31.5469    9.45390   99.61907    24.4523 2.8567e+00     35.391     1.4238 0.0000e+00
     34.000     8.7569    31.5467    9.46526   99.73769    24.4521 3.0480e+00     34.276     1.4171 0.0000e+00
     33.000     8.7566    31.5470    9.45992   99.68141    24.4523 3.2733e+00     33.309     1.4031 0.0000e+00
     32.000     8.7565    31.5466    9.46159   99.69949    24.4521 3.5228e+00     32.317     1.4159 0.0000e+00
     31.000     8.7563    31.5470    9.46016   99.68448    24.4524 3.8180e+00     31.282     1.4091 0.0000e+00
     30.000     8.7565    31.5469    9.45392   99.61698    24.4524 4.1624e+00     30.232     1.4321 0.0000e+00
     29.000     8.7566    31.5466    9.45604   99.63808    24.4521 4.5486e+00     29.339     1.3981 0.0000e+00
     28.000     8.7556    31.5465    9.46162   99.69787    24.4521 4.9910e+00     28.213     1.4773 0.0000e+00
     27.000     8.7553    31.5466    9.45950   99.67523    24.4523 5.5187e+00     27.258     1.4314 0.0000e+00
     26.000     8.7557    31.5466    9.45614   99.63956    24.4522 6.1139e+00     26.267     1.4434 0.0000e+00
     25.000     8.7556    31.5464    9.45204   99.59685    24.4521 6.7889e+00     25.197     1.4829 0.0000e+00
     24.000     8.7555    31.5462    9.45060   99.58075    24.4519 7.5811e+00     24.231     1.4379 0.0000e+00
     23.000     8.7558    31.5465    9.45570   99.63183    24.4521 8.4601e+00     23.229     1.3988 0.0000e+00
     22.000     8.7554    31.5458    9.47070   99.77576    24.4515 9.5237e+00     22.175     1.4113 0.0000e+00
     21.000     8.7549    31.5451    9.48578   99.92490    24.4512 1.0698e+01     21.168     1.4612 0.0000e+00
     20.000     8.7513    31.5389    9.49061   99.97469    24.4467 1.2109e+01     20.243     1.4682 0.0000e+00
     19.000     8.7472    31.5338    9.49231   99.98963    24.4434 1.3727e+01     19.119     1.5445 0.0000e+00
     18.000     8.7468    31.5332    9.49544  100.02077    24.4431 1.5632e+01     18.175     1.5240 0.0000e+00
     17.000     8.7457    31.5328    9.50291  100.09469    24.4428 1.7749e+01     17.140     1.5011 0.0000e+00
     16.000     8.7454    31.5323    9.50257  100.08160    24.4425 2.0216e+01     16.200     1.4918 0.0000e+00
     15.000     8.7440    31.5307    9.50415  100.08960    24.4415 2.3267e+01     15.081     1.5385 0.0000e+00
     14.000     8.7413    31.5276    9.50356  100.07995    24.4393 2.6746e+01     14.182     1.5185 0.0000e+00
     13.000     8.7372    31.5246    9.51070  100.14966    24.4377 3.0782e+01     13.084     1.5058 0.0000e+00
     12.000     8.7362    31.5239    9.51745  100.21162    24.4373 3.5483e+01     12.132     1.5241 0.0000e+00
     11.000     8.7344    31.5219    9.52116  100.23143    24.4360 4.1308e+01     11.113     1.4967 0.0000e+00
     10.000     8.7314    31.5189    9.52463  100.25610    24.4340 4.8381e+01     10.086     1.4791 0.0000e+00
      9.000     8.7256    31.5110    9.52987  100.29694    24.4286 5.6234e+01      9.105     1.4459 0.0000e+00
      8.000     8.7209    31.5068    9.53743  100.36086    24.4262 6.5142e+01      8.074     1.5064 0.0000e+00
      7.000     8.7168    31.4980    9.53725  100.34786    24.4198 7.5419e+01      7.085     1.5072 0.0000e+00
      6.000     8.7127    31.4883    9.53764  100.35471    24.4128 8.6769e+01      6.039     1.5062 0.0000e+00
      5.000     8.7104    31.4794    9.54405  100.44025    24.4064 9.8924e+01      5.069     1.4921 0.0000e+00
      4.000     8.7147    31.4719    9.55222  100.55489    24.4002 1.1215e+02      4.019     1.4328 0.0000e+00
      3.000     8.7257    31.4629    9.56115  100.69672    24.3917 1.2636e+02      3.043     1.4339 0.0000e+00
      2.000     8.7427    31.4504    9.54059  100.76571    24.3797 1.4481e+02      2.019     1.3535 0.0000e+00
      1.000     8.7722    31.4347    9.44251   99.55370    24.3639 2.5444e+02      1.073     1.3256 0.0000e+00
