* Sea-Bird SBE19plus Data File:
* FileName = C:\data\otf\2007\ctd-07139.hex
* Software Version 1.55
* Temperature SN =  5061
* Conductivity SN =  5061
* System UpLoad Time = Aug 15 2007 17:33:05
* ds
* SeacatPlus V 1.6a  SERIAL NO. 5061    15 Aug 2007  15:31:53
* vbatt = 10.9, vlith =  8.7, ioper =  61.6 ma, ipump =  57.5 ma, 
* iext01 =  95.2 ma
* iext23 =  58.1 ma
* 
* status = not logging
* number of scans to average = 1
* samples = 153039, free = 288466, casts = 154
* mode = profile, minimum cond freq = 3000, pump delay = 60 sec
* autorun = no, ignore magnetic switch = no
* battery type = alkaline, battery cutoff =  7.3 volts
* pressure sensor = strain gauge, range = 870.0
* SBE 38 = no, Gas Tension Device = no
* Ext Volt 0 = yes, Ext Volt 1 = yes, Ext Volt 2 = yes, Ext Volt 3 = yes
* echo commands = yes
* output format = raw HEX
* S>
* 
* SeacatPlus V 1.6a  SERIAL NO. 5061    15 Aug 2007  15:32:18
* temperature:  05-oct-06
*     TA0 = 1.254184e-03
*     TA1 = 2.596730e-04
*     TA2 = 5.165612e-07
*     TA3 = 1.318931e-07
*     TOFFSET = 0.000000e+00
* conductivity:  05-oct-06
*     G = -9.978144e-01
*     H = 1.555200e-01
*     I = -4.839108e-04
*     J = 6.121100e-05
*     CF0 = 2.539936e+03
*     CPCOR = -9.570000e-08
*     CTCOR = 3.250000e-06
*     CSLOPE = 1.000000e+00
* pressure S/N = 2362539, range = 870 psia:  24-aug-06
*     PA0 = 2.171091e-01
*     PA1 = 2.647085e-03
*     PA2 = 1.419397e-11
*     PTCA0 = 5.242437e+05
*     PTCA1 = 7.545345e+00
*     PTCA2 = -1.835354e-01
*     PTCB0 = 2.537125e+01
*     PTCB1 = -1.750000e-03
*     PTCB2 = 0.000000e+00
*     PTEMPA0 = -5.753989e+01
*     PTEMPA1 = 5.235813e+01
*     PTEMPA2 = -4.015521e-02
*     POFFSET = 0.000000e+00
* volt 0: offset = -4.682842e-02, slope = 1.249147e+00
* volt 1: offset = -4.695158e-02, slope = 1.248145e+00
* volt 2: offset = -4.685263e-02, slope = 1.248783e+00
* volt 3: offset = -4.690316e-02, slope = 1.249508e+00
*     EXTFREQSF = 1.000002e+00
* dh
* cast 139 27 Jul 2007 12:08:17 samples 136748 to 137629, avg = 1, stop = mag switch
* S> 
# nquan = 10
# nvalues = 129                         
# units = specified
# name 0 = depSM: Depth [salt water, m]
# name 1 = tv290C: Temperature [ITS-90, deg C]
# name 2 = sal00: Salinity [PSU]
# name 3 = sbeox0Mg/L: Oxygen, SBE 43 [mg/l]
# name 4 = sbeox0PS: Oxygen, SBE 43 [% saturation]
# name 5 = sigma-t00: Density [sigma-t, Kg/m^3 ]
# name 6 = par: PAR/Irradiance, Biospherical/Licor
# name 7 = prdM: Pressure, Strain Gauge [db]
# name 8 = flECO-AFL: Fluorescence, Wetlab ECO-AFL/FL [mg/m^3]
# name 9 = flag: flag
# span 0 =      1.000,     67.000       
# span 1 =     8.4052,     8.9785       
# span 2 =    31.5070,    31.7494       
# span 3 =    8.76832,   10.05370       
# span 4 =   91.94977,   99.44314       
# span 5 =    24.3881,    24.6573       
# span 6 = 1.5732e+00, 5.7780e+02       
# span 7 =      1.101,     67.276       
# span 8 =     0.9623,     1.4133       
# span 9 = 0.0000e+00, 0.0000e+00       
# interval = meters: 1                  
# start_time = Jul 27 2007 12:08:17
# bad_flag = -9.990e-29
# sensor 0 = Frequency 0  temperature, 5061, 05-Oct-06
# sensor 1 = Frequency 1  conductivity, 5061, 05-Oct-06, cpcor = -9.5700e-08
# sensor 2 = Pressure Number
# sensor 3 = Extrnl Volt  0  irradiance (PAR), primary, 4751, 08/10/06
# sensor 4 = Extrnl Volt  1  Oxygen, SBE, primary, 1081, 10/24/06
# sensor 5 = Extrnl Volt  2  WET Labs, ECO_AFL
# sensor 6 = Extrnl Volt  3  userpoly 0, 0627, 10/11/06
# datcnv_date = Oct 15 2007 14:49:53, 5.37e
# datcnv_in = I:\bob d\OTF_GEM\2007\ctd-07139.hex I:\Willette\OTF\CTD\5061.con
# datcnv_skipover = 0
# filter_date = Oct 15 2007 15:02:42, 5.37e
# filter_in = I:\Willette\OTF\CTD\2007\CTD Data\ctd-07139.cnv
# filter_low_pass_tc_A = 1.000
# filter_low_pass_tc_B = 0.150
# filter_low_pass_A_vars = prdM
# filter_low_pass_B_vars =
# loopedit_date = Oct 15 2007 15:07:00, 5.37e
# loopedit_in = I:\Willette\OTF\CTD\2007\CTD Data\ctd-07139.cnv
# loopedit_minVelocity = 0.250                                                                                            
# loopedit_surfaceSoak: minDepth = 5.0, maxDepth = 20, useDeckPress = 1                                                   
# loopedit_excl_bad_scans = yes
# alignctd_date = Oct 15 2007 15:14:24, 5.37e
# alignctd_in = I:\Willette\OTF\CTD\2007\CTD Data\ctd-07139.cnv
# alignctd_adv = tv290C 0.500, sbeox0Mg/L 4.000, sbeox0PS 4.000                                                                                                                                                                      
# binavg_date = Oct 15 2007 15:18:53, 5.37e
# binavg_in = I:\Willette\OTF\CTD\2007\CTD Data\ctd-07139.cnv
# binavg_bintype = meters
# binavg_binsize = 1
# binavg_excl_bad_scans = yes
# binavg_skipover = 0
# binavg_surface_bin = no, min = 0.000, max = 0.000, value = 0.000
# file_type = ascii
*END*
      5.000     8.9639    31.6365    8.79181   92.83622    24.4896 1.1711e+02      5.175     1.0392 0.0000e+00
      6.000     8.9308    31.5626    8.85253   93.45385    24.4343 1.1198e+02      6.187     1.1157 0.0000e+00
      7.000     8.8945    31.5645    8.85987   93.50236    24.4411 1.0077e+02      7.088     1.1502 0.0000e+00
      8.000     8.8642    31.5848    8.87109   93.59273    24.4623 8.2316e+01      7.993     1.1842 0.0000e+00
      9.000     8.8405    31.6054    8.89646   93.83614    24.4831 7.1006e+01      8.956     1.2154 0.0000e+00
     10.000     8.8229    31.6231    8.92023   94.05029    24.5006 6.1570e+01     10.004     1.2837 0.0000e+00
     11.000     8.8066    31.6323    8.91863   93.96263    24.5102 5.3391e+01     11.094     1.4133 0.0000e+00
     12.000     8.7854    31.6360    8.93615   94.10882    24.5160 4.6671e+01     12.094     1.3422 0.0000e+00
     13.000     8.7675    31.6473    8.94096   94.13117    24.5279 4.0716e+01     13.105     1.3219 0.0000e+00
     14.000     8.7471    31.6568    8.91915   93.86620    24.5379 3.5432e+01     14.187     1.2897 0.0000e+00
     15.000     8.7109    31.6559    8.94326   94.10794    24.5414 3.1013e+01     15.128     1.2485 0.0000e+00
     16.000     8.6906    31.6794    8.98688   94.57044    24.5646 2.6958e+01     16.089     1.2475 0.0000e+00
     17.000     8.6732    31.6933    8.93462   94.00222    24.5783 2.3568e+01     17.217     1.2317 0.0000e+00
     18.000     8.6604    31.6821    8.92378   93.87481    24.5714 2.0846e+01     18.243     1.2098 0.0000e+00
     19.000     8.6537    31.6862    8.92599   93.89158    24.5762 1.8346e+01     19.086     1.2098 0.0000e+00
     20.000     8.6546    31.7027    8.95557   94.17261    24.5898 1.5898e+01     20.149     1.2193 0.0000e+00
     21.000     8.6475    31.6852    8.98873   94.50486    24.5760 1.4074e+01     21.219     1.1945 0.0000e+00
     22.000     8.6409    31.6932    8.90054   93.49001    24.5840 1.2440e+01     22.238     1.1791 0.0000e+00
     23.000     8.6384    31.6875    8.86915   93.10812    24.5798 1.1034e+01     23.220     1.1767 0.0000e+00
     24.000     8.6188    31.6871    8.92045   93.64505    24.5809 9.7961e+00     24.090     1.1752 0.0000e+00
     25.000     8.5996    31.7188    8.86166   92.99525    24.6090 8.6294e+00     25.326     1.1514 0.0000e+00
     26.000     8.5572    31.6890    8.76832   91.94977    24.5901 7.8082e+00     26.311     1.1564 0.0000e+00
     27.000     8.5402    31.7082    8.82684   92.55031    24.6095 7.0010e+00     27.118     1.1602 0.0000e+00
     28.000     8.5335    31.7343    8.86879   92.98039    24.6319 6.2321e+00     28.275     1.1400 0.0000e+00
     29.000     8.5084    31.7094    8.82805   92.49952    24.6142 5.6793e+00     29.400     1.1378 0.0000e+00
     30.000     8.4876    31.7123    8.86919   92.91858    24.6198 5.1828e+00     30.170     1.1318 0.0000e+00
     31.000     8.4822    31.7494    8.88209   93.04874    24.6516 4.6689e+00     31.251     1.1434 0.0000e+00
     32.000     8.4657    31.7202    8.88814   93.10339    24.6292 4.2959e+00     32.416     1.1172 0.0000e+00
     33.000     8.4491    31.7283    8.91530   93.38375    24.6388 3.9587e+00     33.251     1.0761 0.0000e+00
     34.000     8.4462    31.7433    8.94261   93.66040    24.6523 3.6324e+00     34.291     1.0840 0.0000e+00
     35.000     8.4432    31.7375    8.97601   94.01081    24.6479 3.3706e+00     35.321     1.0838 0.0000e+00
     36.000     8.4407    31.7383    8.95246   93.75348    24.6491 3.1354e+00     36.357     1.0634 0.0000e+00
     37.000     8.4370    31.7363    8.89251   93.10592    24.6480 2.9382e+00     37.420     1.0658 0.0000e+00
     38.000     8.4346    31.7344    8.92766   93.47213    24.6469 2.7706e+00     38.319     1.0517 0.0000e+00
     39.000     8.4339    31.7415    8.92831   93.46920    24.6527 2.6073e+00     39.310     1.0556 0.0000e+00
     40.000     8.4252    31.7336    8.96290   93.82734    24.6470 2.4751e+00     40.426     1.0475 0.0000e+00
     41.000     8.4196    31.7393    8.95963   93.79957    24.6530 2.3577e+00     41.380     1.0350 0.0000e+00
     42.000     8.4178    31.7385    8.85542   92.70014    24.6526 2.2515e+00     42.489     1.0468 0.0000e+00
     43.000     8.4135    31.7361    8.87183   92.86748    24.6512 2.1678e+00     43.375     1.0386 0.0000e+00
     44.000     8.4136    31.7434    8.92678   93.44446    24.6573 2.0856e+00     44.352     1.0451 0.0000e+00
     45.000     8.4155    31.7398    8.90831   93.24950    24.6541 2.0154e+00     45.606     1.0349 0.0000e+00
     46.000     8.4115    31.7342    8.92219   93.39344    24.6500 1.9614e+00     46.503     1.0374 0.0000e+00
     47.000     8.4105    31.7368    8.94961   93.68035    24.6525 1.9095e+00     47.371     1.0158 0.0000e+00
     48.000     8.4119    31.7390    8.97137   93.90324    24.6542 1.8617e+00     48.430     1.0276 0.0000e+00
     49.000     8.4112    31.7350    9.02186   94.42673    24.6509 1.8229e+00     49.471     1.0151 0.0000e+00
     50.000     8.4102    31.7371    9.09177   95.15708    24.6528 1.7870e+00     50.451     1.0159 0.0000e+00
     51.000     8.4107    31.7359    9.15107   95.77750    24.6518 1.7569e+00     51.516     1.0147 0.0000e+00
     52.000     8.4091    31.7326    9.18248   96.10621    24.6493 1.7317e+00     52.407     1.0139 0.0000e+00
     53.000     8.4079    31.7283    9.20374   96.32898    24.6462 1.7063e+00     53.497     1.0392 0.0000e+00
     54.000     8.4075    31.7283    9.22463   96.54813    24.6463 1.6871e+00     54.551     1.0394 0.0000e+00
     55.000     8.4075    31.7283    9.23827   96.69091    24.6463 1.6693e+00     55.460     1.0188 0.0000e+00
     56.000     8.4075    31.7281    9.25637   96.87985    24.6462 1.6539e+00     56.568     1.0295 0.0000e+00
     57.000     8.4077    31.7284    9.26839   97.00566    24.6463 1.6406e+00     57.480     1.0248 0.0000e+00
     58.000     8.4078    31.7281    9.27045   97.02737    24.6461 1.6288e+00     58.555     1.0254 0.0000e+00
     59.000     8.4077    31.7280    9.27388   97.06352    24.6460 1.6194e+00     59.589     0.9998 0.0000e+00
     60.000     8.4077    31.7280    9.28067   97.13476    24.6460 1.6102e+00     60.532     1.0192 0.0000e+00
     61.000     8.4077    31.7280    9.29098   97.24266    24.6460 1.6019e+00     61.584     0.9949 0.0000e+00
     62.000     8.4079    31.7277    9.29342   97.26797    24.6458 1.5957e+00     62.587     0.9958 0.0000e+00
     63.000     8.4080    31.7280    9.29305   97.26379    24.6460 1.5899e+00     63.672     0.9957 0.0000e+00
     64.000     8.4080    31.7276    9.30023   97.33686    24.6457 1.5850e+00     64.517     1.0231 0.0000e+00
     65.000     8.4079    31.7279    9.27811   97.10762    24.6459 1.5806e+00     65.549     1.0147 0.0000e+00
     66.000     8.4078    31.7274    9.26925   97.01424    24.6456 1.5768e+00     66.448     0.9946 0.0000e+00
     67.000     8.4079    31.7264    9.29023   97.23261    24.6447 1.5732e+00     67.276     1.0579 0.0000e+00
     66.000     8.4091    31.7286    9.30947   97.43641    24.6464 1.5753e+00     66.560     0.9639 0.0000e+00
     65.000     8.4082    31.7274    9.31089   97.45197    24.6455 1.5796e+00     65.604     0.9994 0.0000e+00
     64.000     8.4082    31.7282    9.31715   97.51886    24.6461 1.5831e+00     64.546     1.0391 0.0000e+00
     63.000     8.4083    31.7276    9.31666   97.51300    24.6457 1.5886e+00     63.598     1.0354 0.0000e+00
     62.000     8.4092    31.7277    9.31773   97.52377    24.6456 1.5931e+00     62.593     1.0389 0.0000e+00
     61.000     8.4086    31.7272    9.31778   97.52379    24.6453 1.6008e+00     61.631     1.1002 0.0000e+00
     60.000     8.4086    31.7276    9.32011   97.54702    24.6456 1.6086e+00     60.560     1.1064 0.0000e+00
     59.000     8.4085    31.7274    9.31529   97.49732    24.6455 1.6171e+00     59.545     1.0441 0.0000e+00
     58.000     8.4079    31.7273    9.31471   97.49072    24.6455 1.6272e+00     58.547     1.0012 0.0000e+00
     57.000     8.4082    31.7273    9.31575   97.50047    24.6454 1.6379e+00     57.630     1.0234 0.0000e+00
     56.000     8.4079    31.7277    9.31554   97.49797    24.6458 1.6515e+00     56.514     1.0262 0.0000e+00
     55.000     8.4072    31.7276    9.31923   97.53589    24.6458 1.6663e+00     55.565     1.0301 0.0000e+00
     54.000     8.4074    31.7280    9.31940   97.53822    24.6461 1.6832e+00     54.435     0.9868 0.0000e+00
     53.000     8.4068    31.7277    9.31870   97.52820    24.6459 1.7038e+00     53.505     1.0094 0.0000e+00
     52.000     8.4074    31.7278    9.31918   97.53291    24.6460 1.7248e+00     52.473     0.9739 0.0000e+00
     51.000     8.4055    31.7276    9.31707   97.51056    24.6460 1.7517e+00     51.446     0.9974 0.0000e+00
     50.000     8.4056    31.7278    9.31777   97.51773    24.6462 1.7811e+00     50.541     0.9888 0.0000e+00
     49.000     8.4060    31.7281    9.31417   97.47987    24.6464 1.8131e+00     49.378     0.9723 0.0000e+00
     48.000     8.4056    31.7276    9.31628   97.50140    24.6461 1.8547e+00     48.472     0.9792 0.0000e+00
     47.000     8.4052    31.7278    9.32327   97.57581    24.6462 1.8989e+00     47.490     0.9812 0.0000e+00
     46.000     8.4053    31.7280    9.32511   97.59747    24.6464 1.9501e+00     46.405     1.0221 0.0000e+00
     45.000     8.4062    31.7281    9.32629   97.61747    24.6464 2.0119e+00     45.409     1.0096 0.0000e+00
     44.000     8.4085    31.7279    9.32610   97.62164    24.6460 2.0813e+00     44.423     1.0045 0.0000e+00
     43.000     8.4113    31.7261    9.32494   97.61600    24.6440 2.1528e+00     43.381     1.0067 0.0000e+00
     42.000     8.4147    31.7262    9.32756   97.64779    24.6437 2.2471e+00     42.407     1.0089 0.0000e+00
     41.000     8.4172    31.7255    9.32929   97.66804    24.6427 2.3444e+00     41.449     0.9623 0.0000e+00
     40.000     8.4197    31.7248    9.32156   97.59640    24.6419 2.4636e+00     40.370     0.9733 0.0000e+00
     39.000     8.4207    31.7243    9.32227   97.61367    24.6413 2.5925e+00     39.343     1.0032 0.0000e+00
     38.000     8.4265    31.7241    9.33182   97.71400    24.6404 2.7478e+00     38.358     1.0127 0.0000e+00
     37.000     8.4287    31.7224    9.33261   97.72465    24.6386 2.9312e+00     37.407     1.0255 0.0000e+00
     36.000     8.4298    31.7222    9.33341   97.73946    24.6383 3.1371e+00     36.301     1.0387 0.0000e+00
     35.000     8.4308    31.7217    9.33738   97.79468    24.6377 3.3569e+00     35.372     0.9999 0.0000e+00
     34.000     8.4348    31.7222    9.33172   97.74242    24.6377 3.6267e+00     34.275     1.0133 0.0000e+00
     33.000     8.4410    31.7204    9.33093   97.73557    24.6354 3.9422e+00     33.379     1.0430 0.0000e+00
     32.000     8.4440    31.7186    9.32960   97.72365    24.6333 4.2971e+00     32.182     1.0393 0.0000e+00
     31.000     8.4444    31.7184    9.32845   97.71896    24.6332 4.7134e+00     31.334     1.0305 0.0000e+00
     30.000     8.4458    31.7186    9.32722   97.73133    24.6331 5.1547e+00     30.227     1.0240 0.0000e+00
     29.000     8.4504    31.7184    9.33266   97.84260    24.6325 5.7018e+00     29.282     1.0196 0.0000e+00
     28.000     8.4690    31.7170    9.33642   97.92197    24.6292 6.3462e+00     28.295     1.0220 0.0000e+00
     27.000     8.4965    31.7092    9.33710   97.96534    24.6190 7.0358e+00     27.238     1.0652 0.0000e+00
     26.000     8.5141    31.7031    9.33928   98.01368    24.6114 7.8512e+00     26.215     1.0756 0.0000e+00
     25.000     8.5280    31.6988    9.33226   97.97219    24.6059 8.8350e+00     25.257     1.0896 0.0000e+00
     24.000     8.5403    31.6961    9.33745   98.05312    24.6020 9.8948e+00     24.219     1.0703 0.0000e+00
     23.000     8.5577    31.6911    9.33898   98.08504    24.5955 1.1187e+01     23.236     1.1206 0.0000e+00
     22.000     8.5681    31.6867    9.33712   98.07819    24.5903 1.2684e+01     22.219     1.1068 0.0000e+00
     21.000     8.5756    31.6835    9.33851   98.12967    24.5865 1.4368e+01     21.152     1.1339 0.0000e+00
     20.000     8.5819    31.6825    9.33959   98.22907    24.5848 1.6348e+01     20.178     1.1171 0.0000e+00
     19.000     8.6081    31.6821    9.34747   98.32626    24.5823 1.8576e+01     19.231     1.1162 0.0000e+00
     18.000     8.6467    31.6606    9.34168   98.28153    24.5582 2.1298e+01     18.129     1.1517 0.0000e+00
     17.000     8.6505    31.6586    9.34739   98.37404    24.5560 2.4339e+01     17.203     1.1904 0.0000e+00
     16.000     8.6580    31.6564    9.35541   98.50347    24.5531 2.7811e+01     16.051     1.1471 0.0000e+00
     15.000     8.6770    31.6518    9.35360   98.53383    24.5472 3.2171e+01     15.160     1.2315 0.0000e+00
     14.000     8.6967    31.6430    9.35596   98.59944    24.5373 3.6720e+01     14.094     1.2141 0.0000e+00
     13.000     8.7252    31.6313    9.35830   98.66946    24.5241 4.2545e+01     13.127     1.2104 0.0000e+00
     12.000     8.7429    31.6202    9.36156   98.73756    24.5125 4.8886e+01     12.097     1.2305 0.0000e+00
     11.000     8.7672    31.6092    9.36931   98.85043    24.5004 5.6865e+01     11.113     1.2483 0.0000e+00
     10.000     8.7843    31.5990    9.37630   98.97194    24.4896 6.5665e+01     10.072     1.2872 0.0000e+00
      9.000     8.7995    31.5904    9.37802   99.02118    24.4806 7.6310e+01      9.086     1.3190 0.0000e+00
      8.000     8.8224    31.5797    9.37430   99.02951    24.4690 8.8781e+01      8.087     1.3344 0.0000e+00
      7.000     8.8424    31.5659    9.37889   99.12106    24.4549 1.0259e+02      7.021     1.3326 0.0000e+00
      6.000     8.8656    31.5557    9.38742   99.23118    24.4438 1.2226e+02      6.090     1.3585 0.0000e+00
      5.000     8.8903    31.5392    9.39045   99.29915    24.4269 1.4123e+02      5.027     1.3959 0.0000e+00
      4.000     8.9022    31.5321    9.38778   99.33018    24.4192 1.7038e+02      4.072     1.3455 0.0000e+00
      3.000     8.9221    31.5255    9.39220   99.44314    24.4112 1.9703e+02      2.961     1.2785 0.0000e+00
      2.000     8.9527    31.5228   10.01141   99.40798    24.4056 2.3973e+02      2.041     1.2075 0.0000e+00
      1.000     8.9785    31.5070   10.05370   98.47616    24.3881 5.7780e+02      1.101     1.1240 0.0000e+00
