* Sea-Bird SBE19plus Data File:
* FileName = C:\data\otf\2007\ctd-07118.hex
* Software Version 1.55
* Temperature SN =  5061
* Conductivity SN =  5061
* System UpLoad Time = Aug 15 2007 16:45:45
* ds
* SeacatPlus V 1.6a  SERIAL NO. 5061    15 Aug 2007  15:31:53
* vbatt = 10.9, vlith =  8.7, ioper =  61.6 ma, ipump =  57.5 ma, 
* iext01 =  95.2 ma
* iext23 =  58.1 ma
* 
* status = not logging
* number of scans to average = 1
* samples = 153039, free = 288466, casts = 154
* mode = profile, minimum cond freq = 3000, pump delay = 60 sec
* autorun = no, ignore magnetic switch = no
* battery type = alkaline, battery cutoff =  7.3 volts
* pressure sensor = strain gauge, range = 870.0
* SBE 38 = no, Gas Tension Device = no
* Ext Volt 0 = yes, Ext Volt 1 = yes, Ext Volt 2 = yes, Ext Volt 3 = yes
* echo commands = yes
* output format = raw HEX
* S>
* 
* SeacatPlus V 1.6a  SERIAL NO. 5061    15 Aug 2007  15:32:18
* temperature:  05-oct-06
*     TA0 = 1.254184e-03
*     TA1 = 2.596730e-04
*     TA2 = 5.165612e-07
*     TA3 = 1.318931e-07
*     TOFFSET = 0.000000e+00
* conductivity:  05-oct-06
*     G = -9.978144e-01
*     H = 1.555200e-01
*     I = -4.839108e-04
*     J = 6.121100e-05
*     CF0 = 2.539936e+03
*     CPCOR = -9.570000e-08
*     CTCOR = 3.250000e-06
*     CSLOPE = 1.000000e+00
* pressure S/N = 2362539, range = 870 psia:  24-aug-06
*     PA0 = 2.171091e-01
*     PA1 = 2.647085e-03
*     PA2 = 1.419397e-11
*     PTCA0 = 5.242437e+05
*     PTCA1 = 7.545345e+00
*     PTCA2 = -1.835354e-01
*     PTCB0 = 2.537125e+01
*     PTCB1 = -1.750000e-03
*     PTCB2 = 0.000000e+00
*     PTEMPA0 = -5.753989e+01
*     PTEMPA1 = 5.235813e+01
*     PTEMPA2 = -4.015521e-02
*     POFFSET = 0.000000e+00
* volt 0: offset = -4.682842e-02, slope = 1.249147e+00
* volt 1: offset = -4.695158e-02, slope = 1.248145e+00
* volt 2: offset = -4.685263e-02, slope = 1.248783e+00
* volt 3: offset = -4.690316e-02, slope = 1.249508e+00
*     EXTFREQSF = 1.000002e+00
* dh
* cast 118 23 Jul 2007 10:23:32 samples 79360 to 80450, avg = 1, stop = mag switch
* S> 
# nquan = 10
# nvalues = 131                         
# units = specified
# name 0 = depSM: Depth [salt water, m]
# name 1 = tv290C: Temperature [ITS-90, deg C]
# name 2 = sal00: Salinity [PSU]
# name 3 = sbeox0Mg/L: Oxygen, SBE 43 [mg/l]
# name 4 = sbeox0PS: Oxygen, SBE 43 [% saturation]
# name 5 = sigma-t00: Density [sigma-t, Kg/m^3 ]
# name 6 = par: PAR/Irradiance, Biospherical/Licor
# name 7 = prdM: Pressure, Strain Gauge [db]
# name 8 = flECO-AFL: Fluorescence, Wetlab ECO-AFL/FL [mg/m^3]
# name 9 = flag: flag
# span 0 =      1.000,     68.000       
# span 1 =     8.4818,     8.8220       
# span 2 =    31.4367,    31.6037       
# span 3 =    9.21878,    9.66448       
# span 4 =   97.06934,  100.55360       
# span 5 =    24.3580,    24.5377       
# span 6 = 1.5499e+00, 6.9854e+01       
# span 7 =      1.099,     68.270       
# span 8 =     0.9732,     1.5625       
# span 9 = 0.0000e+00, 0.0000e+00       
# interval = meters: 1                  
# start_time = Jul 23 2007 10:23:32
# bad_flag = -9.990e-29
# sensor 0 = Frequency 0  temperature, 5061, 05-Oct-06
# sensor 1 = Frequency 1  conductivity, 5061, 05-Oct-06, cpcor = -9.5700e-08
# sensor 2 = Pressure Number
# sensor 3 = Extrnl Volt  0  irradiance (PAR), primary, 4751, 08/10/06
# sensor 4 = Extrnl Volt  1  Oxygen, SBE, primary, 1081, 10/24/06
# sensor 5 = Extrnl Volt  2  WET Labs, ECO_AFL
# sensor 6 = Extrnl Volt  3  userpoly 0, 0627, 10/11/06
# datcnv_date = Oct 15 2007 14:49:48, 5.37e
# datcnv_in = I:\bob d\OTF_GEM\2007\ctd-07118.hex I:\Willette\OTF\CTD\5061.con
# datcnv_skipover = 0
# filter_date = Oct 15 2007 15:02:31, 5.37e
# filter_in = I:\Willette\OTF\CTD\2007\CTD Data\ctd-07118.cnv
# filter_low_pass_tc_A = 1.000
# filter_low_pass_tc_B = 0.150
# filter_low_pass_A_vars = prdM
# filter_low_pass_B_vars =
# loopedit_date = Oct 15 2007 15:06:52, 5.37e
# loopedit_in = I:\Willette\OTF\CTD\2007\CTD Data\ctd-07118.cnv
# loopedit_minVelocity = 0.250                                                                                            
# loopedit_surfaceSoak: minDepth = 5.0, maxDepth = 20, useDeckPress = 1                                                   
# loopedit_excl_bad_scans = yes
# alignctd_date = Oct 15 2007 15:14:19, 5.37e
# alignctd_in = I:\Willette\OTF\CTD\2007\CTD Data\ctd-07118.cnv
# alignctd_adv = tv290C 0.500, sbeox0Mg/L 4.000, sbeox0PS 4.000                                                                                                                                                                      
# binavg_date = Oct 15 2007 15:18:47, 5.37e
# binavg_in = I:\Willette\OTF\CTD\2007\CTD Data\ctd-07118.cnv
# binavg_bintype = meters
# binavg_binsize = 1
# binavg_excl_bad_scans = yes
# binavg_skipover = 0
# binavg_surface_bin = no, min = 0.000, max = 0.000, value = 0.000
# file_type = ascii
*END*
      5.000     8.7814    31.4367    9.21878   97.06934    24.3611 2.1560e+01      5.196     1.3354 0.0000e+00
      6.000     8.7604    31.4413    9.25598   97.45331    24.3678 1.8993e+01      6.112     1.2636 0.0000e+00
      7.000     8.7524    31.4503    9.27684   97.66859    24.3770 1.6700e+01      7.024     1.1763 0.0000e+00
      8.000     8.7498    31.4519    9.30146   97.92514    24.3787 1.4713e+01      8.095     1.1601 0.0000e+00
      9.000     8.7462    31.4529    9.32511   98.13849    24.3801 1.2935e+01      9.026     1.1215 0.0000e+00
     10.000     8.7441    31.4546    9.35632   98.43019    24.3819 1.1362e+01     10.201     1.0703 0.0000e+00
     11.000     8.7392    31.4518    9.37684   98.63071    24.3798 1.0093e+01     11.248     1.0089 0.0000e+00
     12.000     8.7188    31.4529    9.38729   98.73098    24.3830 8.9422e+00     12.130     1.0332 0.0000e+00
     13.000     8.7087    31.4640    9.40144   98.87608    24.3939 7.9243e+00     13.185     1.0520 0.0000e+00
     14.000     8.7023    31.4686    9.41227   98.98491    24.3987 7.1041e+00     14.173     1.0622 0.0000e+00
     15.000     8.6975    31.4720    9.41377   98.99460    24.4021 6.3762e+00     14.952     1.0553 0.0000e+00
     16.000     8.6926    31.4762    9.42153   99.07202    24.4064 5.6462e+00     16.017     1.0692 0.0000e+00
     17.000     8.6883    31.4777    9.43281   99.16813    24.4081 5.1043e+00     17.096     1.0457 0.0000e+00
     18.000     8.6832    31.4819    9.44133   99.20514    24.4123 4.5930e+00     18.269     1.1053 0.0000e+00
     19.000     8.6756    31.4814    9.44515   99.20494    24.4124 4.2496e+00     19.246     1.0866 0.0000e+00
     20.000     8.6582    31.4884    9.45349   99.26946    24.4203 3.8704e+00     20.250     1.0471 0.0000e+00
     21.000     8.6430    31.4934    9.46110   99.31356    24.4263 3.5778e+00     21.272     1.0739 0.0000e+00
     22.000     8.6290    31.4987    9.46846   99.35481    24.4327 3.3107e+00     22.213     1.0570 0.0000e+00
     23.000     8.6174    31.5054    9.47438   99.39595    24.4400 3.0733e+00     23.329     1.0329 0.0000e+00
     24.000     8.6072    31.5091    9.47871   99.43882    24.4442 2.8863e+00     24.340     1.0130 0.0000e+00
     25.000     8.5912    31.5123    9.47989   99.45062    24.4480 2.7211e+00     25.183     0.9921 0.0000e+00
     26.000     8.5732    31.5270    9.48237   99.47680    24.4628 2.5662e+00     26.149     0.9948 0.0000e+00
     27.000     8.5627    31.5416    9.47800   99.43144    24.4767 2.4304e+00     27.286     1.0048 0.0000e+00
     28.000     8.5622    31.5438    9.48509   99.50163    24.4789 2.3261e+00     28.222     0.9829 0.0000e+00
     29.000     8.5619    31.5443    9.48840   99.53414    24.4794 2.2283e+00     29.088     0.9973 0.0000e+00
     30.000     8.5622    31.5443    9.48634   99.50079    24.4794 2.1345e+00     30.295     1.0024 0.0000e+00
     31.000     8.5597    31.5446    9.49348   99.55160    24.4797 2.0651e+00     31.366     0.9732 0.0000e+00
     32.000     8.5577    31.5466    9.49601   99.56690    24.4816 1.9993e+00     32.321     0.9777 0.0000e+00
     33.000     8.5522    31.5495    9.49753   99.56100    24.4846 1.9423e+00     33.386     1.0071 0.0000e+00
     34.000     8.5425    31.5505    9.49243   99.48721    24.4860 1.8945e+00     34.409     0.9986 0.0000e+00
     35.000     8.5350    31.5595    9.49162   99.47157    24.4948 1.8525e+00     35.332     0.9826 0.0000e+00
     36.000     8.5303    31.5619    9.49061   99.45216    24.4973 1.8146e+00     36.252     0.9889 0.0000e+00
     37.000     8.5175    31.5686    9.49380   99.48142    24.5040 1.7804e+00     37.293     1.0054 0.0000e+00
     38.000     8.5076    31.5797    9.49482   99.49694    24.5147 1.7520e+00     38.374     1.0154 0.0000e+00
     39.000     8.5019    31.5837    9.49248   99.47598    24.5187 1.7274e+00     39.447     0.9994 0.0000e+00
     40.000     8.4990    31.5879    9.49702   99.52306    24.5227 1.7063e+00     40.335     1.0183 0.0000e+00
     41.000     8.4992    31.5896    9.50598   99.60879    24.5243 1.6860e+00     41.370     1.0216 0.0000e+00
     42.000     8.5026    31.5871    9.51135   99.65520    24.5218 1.6694e+00     42.441     1.0135 0.0000e+00
     43.000     8.5029    31.5858    9.51237   99.66598    24.5206 1.6547e+00     43.391     1.0138 0.0000e+00
     44.000     8.5013    31.5862    9.51335   99.67472    24.5210 1.6414e+00     44.389     1.0225 0.0000e+00
     45.000     8.4935    31.5901    9.51467   99.68606    24.5249 1.6303e+00     45.458     1.0217 0.0000e+00
     46.000     8.4928    31.5932    9.51327   99.67428    24.5278 1.6204e+00     46.415     1.0215 0.0000e+00
     47.000     8.4923    31.5937    9.51063   99.64103    24.5283 1.6113e+00     47.401     1.0061 0.0000e+00
     48.000     8.4903    31.5952    9.51306   99.66257    24.5297 1.6038e+00     48.468     1.0214 0.0000e+00
     49.000     8.4917    31.5957    9.51439   99.68463    24.5301 1.5977e+00     49.464     1.0329 0.0000e+00
     50.000     8.4894    31.5949    9.51537   99.69573    24.5294 1.5914e+00     50.400     1.0284 0.0000e+00
     51.000     8.4861    31.6000    9.51713   99.71283    24.5343 1.5858e+00     51.575     1.0336 0.0000e+00
     52.000     8.4907    31.5974    9.51835   99.72101    24.5317 1.5820e+00     52.447     1.0451 0.0000e+00
     53.000     8.4914    31.5955    9.51893   99.72444    24.5299 1.5773e+00     53.531     1.0393 0.0000e+00
     54.000     8.4906    31.5954    9.52129   99.74915    24.5299 1.5742e+00     54.571     1.0328 0.0000e+00
     55.000     8.4881    31.5970    9.51636   99.69663    24.5314 1.5712e+00     55.465     1.0680 0.0000e+00
     56.000     8.4863    31.5992    9.51871   99.72002    24.5335 1.5682e+00     56.588     1.0646 0.0000e+00
     57.000     8.4866    31.5996    9.52142   99.74583    24.5339 1.5658e+00     57.573     1.0385 0.0000e+00
     58.000     8.4861    31.5994    9.51745   99.70312    24.5337 1.5643e+00     58.552     1.0500 0.0000e+00
     59.000     8.4854    31.6002    9.51289   99.65395    24.5345 1.5628e+00     59.519     1.0507 0.0000e+00
     60.000     8.4840    31.6015    9.51725   99.69908    24.5355 1.5609e+00     60.576     1.0494 0.0000e+00
     61.000     8.4830    31.6027    9.51824   99.70937    24.5367 1.5584e+00     61.639     1.0699 0.0000e+00
     62.000     8.4823    31.6026    9.51779   99.70531    24.5368 1.5546e+00     62.584     1.0389 0.0000e+00
     63.000     8.4818    31.6035    9.51053   99.62975    24.5376 1.5499e+00     63.589     1.0642 0.0000e+00
     64.000     8.4819    31.6037    9.51084   99.63290    24.5377 1.5524e+00     64.593     1.0830 0.0000e+00
     65.000     8.4821    31.6035    9.50767   99.59965    24.5376 1.5544e+00     65.564     1.0734 0.0000e+00
     66.000     8.4824    31.6034    9.49983   99.51876    24.5375 1.5544e+00     66.554     1.0710 0.0000e+00
     67.000     8.4826    31.6028    9.49401   99.45672    24.5369 1.5537e+00     67.465     1.0770 0.0000e+00
     68.000     8.4822    31.6023    9.49288   99.44524    24.5366 1.5559e+00     68.270     1.1042 0.0000e+00
     67.000     8.4834    31.6035    9.49198   99.43677    24.5374 1.5536e+00     67.550     1.0640 0.0000e+00
     66.000     8.4832    31.6032    9.49763   99.49476    24.5371 1.5542e+00     66.624     1.0767 0.0000e+00
     65.000     8.4830    31.6030    9.50066   99.52607    24.5370 1.5550e+00     65.631     1.0780 0.0000e+00
     64.000     8.4825    31.6030    9.50181   99.53844    24.5370 1.5558e+00     64.581     1.0779 0.0000e+00
     63.000     8.4824    31.6029    9.50131   99.53376    24.5371 1.5568e+00     63.583     1.1226 0.0000e+00
     62.000     8.4825    31.6032    9.50396   99.56046    24.5372 1.5577e+00     62.658     1.1156 0.0000e+00
     61.000     8.4829    31.6029    9.49856   99.50340    24.5370 1.5587e+00     61.486     1.1401 0.0000e+00
     60.000     8.4821    31.6031    9.49787   99.49753    24.5372 1.5604e+00     60.569     1.2199 0.0000e+00
     59.000     8.4821    31.6032    9.50176   99.53919    24.5373 1.5618e+00     59.683     1.1943 0.0000e+00
     58.000     8.4833    31.6026    9.49744   99.49368    24.5367 1.5637e+00     58.461     1.1383 0.0000e+00
     57.000     8.4831    31.6022    9.49899   99.50972    24.5364 1.5657e+00     57.564     1.1607 0.0000e+00
     56.000     8.4834    31.6021    9.49633   99.48208    24.5363 1.5682e+00     56.559     1.1517 0.0000e+00
     55.000     8.4831    31.6024    9.50498   99.57863    24.5365 1.5710e+00     55.531     1.1853 0.0000e+00
     54.000     8.4840    31.6020    9.50837   99.62418    24.5362 1.5741e+00     54.544     1.1840 0.0000e+00
     53.000     8.4881    31.5989    9.51117   99.66742    24.5332 1.5777e+00     53.447     1.2087 0.0000e+00
     52.000     8.4943    31.5942    9.51245   99.67293    24.5287 1.5822e+00     52.490     1.2408 0.0000e+00
     51.000     8.5008    31.5891    9.51057   99.64321    24.5237 1.5866e+00     51.470     1.1955 0.0000e+00
     50.000     8.4950    31.5910    9.50394   99.57003    24.5255 1.5923e+00     50.485     1.1710 0.0000e+00
     49.000     8.4898    31.5955    9.50395   99.57413    24.5300 1.5984e+00     49.513     1.1776 0.0000e+00
     48.000     8.4879    31.5977    9.50925   99.62793    24.5321 1.6056e+00     48.427     1.1903 0.0000e+00
     47.000     8.4902    31.5961    9.50257   99.55534    24.5306 1.6147e+00     47.477     1.1781 0.0000e+00
     46.000     8.4888    31.5971    9.50165   99.54170    24.5314 1.6247e+00     46.377     1.1883 0.0000e+00
     45.000     8.4876    31.5973    9.50768   99.60739    24.5318 1.6349e+00     45.400     1.1587 0.0000e+00
     44.000     8.4860    31.5990    9.51147   99.64273    24.5334 1.6472e+00     44.518     1.1609 0.0000e+00
     43.000     8.4876    31.5974    9.50817   99.62899    24.5320 1.6615e+00     43.315     1.2318 0.0000e+00
     42.000     8.4843    31.6000    9.50954   99.66318    24.5345 1.6771e+00     42.423     1.3339 0.0000e+00
     41.000     8.4966    31.5942    9.51150   99.70583    24.5288 1.6967e+00     41.399     1.3636 0.0000e+00
     40.000     8.5097    31.5820    9.50779   99.67338    24.5170 1.7174e+00     40.394     1.3381 0.0000e+00
     39.000     8.5228    31.5719    9.49671   99.55360    24.5071 1.7420e+00     39.333     1.2990 0.0000e+00
     38.000     8.5228    31.5697    9.49622   99.54244    24.5050 1.7698e+00     38.401     1.2177 0.0000e+00
     37.000     8.5219    31.5708    9.48778   99.46506    24.5060 1.8016e+00     37.321     1.1716 0.0000e+00
     36.000     8.5190    31.5734    9.49512   99.55488    24.5086 1.8392e+00     36.324     1.2243 0.0000e+00
     35.000     8.5254    31.5687    9.50264   99.64865    24.5041 1.8802e+00     35.374     1.1846 0.0000e+00
     34.000     8.5337    31.5638    9.51177   99.77019    24.4992 1.9291e+00     34.274     1.1943 0.0000e+00
     33.000     8.5415    31.5578    9.51324   99.80168    24.4933 1.9834e+00     33.349     1.2089 0.0000e+00
     32.000     8.5549    31.5508    9.51473   99.82078    24.4861 2.0469e+00     32.295     1.1770 0.0000e+00
     31.000     8.5640    31.5417    9.51176   99.78902    24.4772 2.1210e+00     31.274     1.1744 0.0000e+00
     30.000     8.5650    31.5401    9.51225   99.79346    24.4757 2.2053e+00     30.295     1.1661 0.0000e+00
     29.000     8.5647    31.5402    9.51290   99.80104    24.4757 2.3002e+00     29.261     1.1885 0.0000e+00
     28.000     8.5645    31.5404    9.51246   99.79896    24.4759 2.4122e+00     28.243     1.1552 0.0000e+00
     27.000     8.5647    31.5404    9.50954   99.77018    24.4759 2.5370e+00     27.270     1.1619 0.0000e+00
     26.000     8.5659    31.5398    9.50797   99.76143    24.4753 2.6817e+00     26.245     1.1396 0.0000e+00
     25.000     8.5674    31.5384    9.50394   99.74065    24.4740 2.8505e+00     25.242     1.1509 0.0000e+00
     24.000     8.5713    31.5365    9.50693   99.79921    24.4721 3.0421e+00     24.266     1.1420 0.0000e+00
     23.000     8.5835    31.5302    9.50927   99.86258    24.4658 3.2716e+00     23.193     1.1514 0.0000e+00
     22.000     8.5983    31.5210    9.50256   99.82482    24.4563 3.5293e+00     22.213     1.1769 0.0000e+00
     21.000     8.6162    31.5130    9.50228   99.84900    24.4475 3.8310e+00     21.200     1.1535 0.0000e+00
     20.000     8.6323    31.5065    9.50420   99.90151    24.4400 4.1719e+00     20.202     1.1680 0.0000e+00
     19.000     8.6469    31.5003    9.51192  100.00524    24.4328 4.5818e+00     19.162     1.1747 0.0000e+00
     18.000     8.6631    31.4940    9.50851   99.98374    24.4257 5.0620e+00     18.193     1.1761 0.0000e+00
     17.000     8.6754    31.4845    9.51053  100.01610    24.4158 5.7589e+00     17.069     1.1968 0.0000e+00
     16.000     8.6822    31.4824    9.49902   99.90534    24.4133 6.2956e+00     16.210     1.1895 0.0000e+00
     15.000     8.6877    31.4793    9.50934  100.02252    24.4099 6.9043e+00     15.055     1.2203 0.0000e+00
     14.000     8.6930    31.4769    9.51367  100.07959    24.4074 7.7141e+00     14.189     1.1874 0.0000e+00
     13.000     8.6973    31.4733    9.51659  100.12464    24.4038 8.6424e+00     13.058     1.1784 0.0000e+00
     12.000     8.7036    31.4705    9.52244  100.21915    24.4008 9.6666e+00     12.143     1.1669 0.0000e+00
     11.000     8.7091    31.4671    9.52331  100.24810    24.3973 1.0972e+01     11.078     1.1917 0.0000e+00
     10.000     8.7234    31.4643    9.52397  100.26404    24.3935 1.2483e+01     10.123     1.2071 0.0000e+00
      9.000     8.7368    31.4578    9.52457  100.27480    24.3859 1.4283e+01      9.052     1.2466 0.0000e+00
      8.000     8.7409    31.4554    9.52566  100.29716    24.3833 1.6522e+01      8.131     1.2494 0.0000e+00
      7.000     8.7441    31.4529    9.53320  100.39059    24.3806 1.8843e+01      7.025     1.2304 0.0000e+00
      6.000     8.7492    31.4529    9.53586  100.46396    24.3801 2.1443e+01      6.080     1.2218 0.0000e+00
      5.000     8.7561    31.4504    9.53257  100.47047    24.3772 2.4234e+01      4.983     1.2834 0.0000e+00
      4.000     8.7782    31.4487    9.53653  100.54001    24.3731 2.7991e+01      4.060     1.3464 0.0000e+00
      3.000     8.7959    31.4449    9.53524  100.55360    24.3675 3.2454e+01      3.039     1.3200 0.0000e+00
      2.000     8.8104    31.4391    9.52226  100.41977    24.3601 3.8527e+01      2.006     1.3684 0.0000e+00
      1.000     8.8220    31.4383    9.66448   99.51581    24.3580 6.9854e+01      1.099     1.5625 0.0000e+00
