* Sea-Bird SBE19plus Data File:
* FileName = C:\data\otf\2007\ctd-07068.hex
* Software Version 1.55
* Temperature SN =  5061
* Conductivity SN =  5061
* System UpLoad Time = Aug 15 2007 16:16:07
* ds
* SeacatPlus V 1.6a  SERIAL NO. 5061    15 Aug 2007  15:31:53
* vbatt = 10.9, vlith =  8.7, ioper =  61.6 ma, ipump =  57.5 ma, 
* iext01 =  95.2 ma
* iext23 =  58.1 ma
* 
* status = not logging
* number of scans to average = 1
* samples = 153039, free = 288466, casts = 154
* mode = profile, minimum cond freq = 3000, pump delay = 60 sec
* autorun = no, ignore magnetic switch = no
* battery type = alkaline, battery cutoff =  7.3 volts
* pressure sensor = strain gauge, range = 870.0
* SBE 38 = no, Gas Tension Device = no
* Ext Volt 0 = yes, Ext Volt 1 = yes, Ext Volt 2 = yes, Ext Volt 3 = yes
* echo commands = yes
* output format = raw HEX
* S>
* 
* SeacatPlus V 1.6a  SERIAL NO. 5061    15 Aug 2007  15:32:18
* temperature:  05-oct-06
*     TA0 = 1.254184e-03
*     TA1 = 2.596730e-04
*     TA2 = 5.165612e-07
*     TA3 = 1.318931e-07
*     TOFFSET = 0.000000e+00
* conductivity:  05-oct-06
*     G = -9.978144e-01
*     H = 1.555200e-01
*     I = -4.839108e-04
*     J = 6.121100e-05
*     CF0 = 2.539936e+03
*     CPCOR = -9.570000e-08
*     CTCOR = 3.250000e-06
*     CSLOPE = 1.000000e+00
* pressure S/N = 2362539, range = 870 psia:  24-aug-06
*     PA0 = 2.171091e-01
*     PA1 = 2.647085e-03
*     PA2 = 1.419397e-11
*     PTCA0 = 5.242437e+05
*     PTCA1 = 7.545345e+00
*     PTCA2 = -1.835354e-01
*     PTCB0 = 2.537125e+01
*     PTCB1 = -1.750000e-03
*     PTCB2 = 0.000000e+00
*     PTEMPA0 = -5.753989e+01
*     PTEMPA1 = 5.235813e+01
*     PTEMPA2 = -4.015521e-02
*     POFFSET = 0.000000e+00
* volt 0: offset = -4.682842e-02, slope = 1.249147e+00
* volt 1: offset = -4.695158e-02, slope = 1.248145e+00
* volt 2: offset = -4.685263e-02, slope = 1.248783e+00
* volt 3: offset = -4.690316e-02, slope = 1.249508e+00
*     EXTFREQSF = 1.000002e+00
* dh
* cast  68 13 Jul 2007 14:21:45 samples 47845 to 48159, avg = 4, stop = mag switch
* S> 
# nquan = 10
# nvalues = 170                         
# units = specified
# name 0 = depSM: Depth [salt water, m]
# name 1 = tv290C: Temperature [ITS-90, deg C]
# name 2 = sal00: Salinity [PSU]
# name 3 = sbeox0Mg/L: Oxygen, SBE 43 [mg/l]
# name 4 = sbeox0PS: Oxygen, SBE 43 [% saturation]
# name 5 = sigma-t00: Density [sigma-t, Kg/m^3 ]
# name 6 = par: PAR/Irradiance, Biospherical/Licor
# name 7 = prdM: Pressure, Strain Gauge [db]
# name 8 = flECO-AFL: Fluorescence, Wetlab ECO-AFL/FL [mg/m^3]
# name 9 = flag: flag
# span 0 =      1.000,     87.000       
# span 1 =     8.6144,     9.4805       
# span 2 =    30.5963,    31.1110       
# span 3 =    9.28115,    9.70507       
# span 4 =   97.99207,  101.96778       
# span 5 =    23.6158,    24.1319       
# span 6 = 1.5451e+00, 1.1086e+03       
# span 7 =      2.085,     86.608       
# span 8 =     0.2327,     0.8591       
# span 9 = 0.0000e+00, 0.0000e+00       
# interval = meters: 1                  
# start_time = Jul 13 2007 14:21:45
# bad_flag = -9.990e-29
# sensor 0 = Frequency 0  temperature, 5061, 05-Oct-06
# sensor 1 = Frequency 1  conductivity, 5061, 05-Oct-06, cpcor = -9.5700e-08
# sensor 2 = Pressure Number
# sensor 3 = Extrnl Volt  0  irradiance (PAR), primary, 4751, 08/10/06
# sensor 4 = Extrnl Volt  1  Oxygen, SBE, primary, 1081, 10/24/06
# sensor 5 = Extrnl Volt  2  WET Labs, ECO_AFL
# sensor 6 = Extrnl Volt  3  userpoly 0, 0627, 10/11/06
# datcnv_date = Oct 15 2007 14:49:45, 5.37e
# datcnv_in = I:\bob d\OTF_GEM\2007\ctd-07068.hex I:\Willette\OTF\CTD\5061.con
# datcnv_skipover = 0
# filter_date = Oct 15 2007 15:02:25, 5.37e
# filter_in = I:\Willette\OTF\CTD\2007\CTD Data\ctd-07068.cnv
# filter_low_pass_tc_A = 1.000
# filter_low_pass_tc_B = 0.150
# filter_low_pass_A_vars = prdM
# filter_low_pass_B_vars =
# loopedit_date = Oct 15 2007 15:06:47, 5.37e
# loopedit_in = I:\Willette\OTF\CTD\2007\CTD Data\ctd-07068.cnv
# loopedit_minVelocity = 0.250                                                                                            
# loopedit_surfaceSoak: minDepth = 5.0, maxDepth = 20, useDeckPress = 1                                                   
# loopedit_excl_bad_scans = yes
# alignctd_date = Oct 15 2007 15:14:15, 5.37e
# alignctd_in = I:\Willette\OTF\CTD\2007\CTD Data\ctd-07068.cnv
# alignctd_adv = tv290C 0.500, sbeox0Mg/L 4.000, sbeox0PS 4.000                                                                                                                                                                      
# binavg_date = Oct 15 2007 15:18:44, 5.37e
# binavg_in = I:\Willette\OTF\CTD\2007\CTD Data\ctd-07068.cnv
# binavg_bintype = meters
# binavg_binsize = 1
# binavg_excl_bad_scans = yes
# binavg_skipover = 0
# binavg_surface_bin = no, min = 0.000, max = 0.000, value = 0.000
# file_type = ascii
*END*
      4.000     9.2939    30.6502    9.28115   97.99207    23.6608 3.1084e+02      4.971     0.3634 0.0000e+00
      5.000     9.2301    30.6448    9.35215   98.72929    23.6633 2.3194e+02      5.798     0.4245 0.0000e+00
      6.000     9.2039    30.6615    9.39595   99.12785    23.6855 1.7565e+02      6.616     0.4577 0.0000e+00
      7.000     9.1493    30.6808    9.42263   99.35931    23.7070 1.2682e+02      7.781     0.4619 0.0000e+00
      8.000     9.1442    30.6537    9.44479   99.57528    23.6908 9.7361e+01      8.584     0.4790 0.0000e+00
      9.000     9.1347    30.6766    9.46281   99.76516    23.7126 6.9332e+01      9.387     0.4663 0.0000e+00
     10.000     9.1170    30.6804    9.47689   99.91036    23.7164 4.9072e+01     10.734     0.4404 0.0000e+00
     11.000     9.1247    30.6537    9.47792   99.92142    23.6967 3.9000e+01     11.067     0.4392 0.0000e+00
     12.000     9.0979    30.6792    9.49455  100.09757    23.7181 2.6919e+01     12.286     0.4519 0.0000e+00
     13.000     9.0955    30.6566    9.50370  100.19244    23.7029 2.0934e+01     13.272     0.4104 0.0000e+00
     14.000     9.0962    30.6606    9.51796  100.32312    23.7075 1.5518e+01     14.401     0.4326 0.0000e+00
     15.000     9.0936    30.6610    9.52674  100.40432    23.7078 1.1916e+01     15.419     0.4254 0.0000e+00
     16.000     9.0894    30.6603    9.53551  100.48326    23.7074 8.9722e+00     16.450     0.4129 0.0000e+00
     17.000     9.0540    30.6619    9.53908  100.51085    23.7093 6.8409e+00     17.638     0.3958 0.0000e+00
     18.000     9.0486    30.6530    9.54462  100.56579    23.7028 5.4571e+00     18.419     0.4203 0.0000e+00
     19.000     9.0290    30.6681    9.55097  100.62325    23.7193 4.2229e+00     19.351     0.4202 0.0000e+00
     20.000     9.0232    30.6701    9.56107  100.72305    23.7227 3.3286e+00     20.565     0.3963 0.0000e+00
     21.000     9.0248    30.6794    9.56459  100.75840    23.7328 2.8207e+00     21.376     0.3945 0.0000e+00
     22.000     9.0240    30.6822    9.55931  100.69565    23.7355 2.4116e+00     22.218     0.4024 0.0000e+00
     23.000     9.0233    30.6818    9.56122  100.70968    23.7350 2.0963e+00     23.381     0.4080 0.0000e+00
     24.000     9.0235    30.6822    9.56873  100.78817    23.7355 1.9177e+00     24.629     0.4073 0.0000e+00
     25.000     9.0238    30.6825    9.56805  100.77639    23.7358 1.8101e+00     25.326     0.4090 0.0000e+00
     26.000     9.0232    30.6826    9.57340  100.81877    23.7358 1.7140e+00     26.284     0.3991 0.0000e+00
     27.000     9.0125    30.6824    9.57782  100.85753    23.7356 1.6515e+00     27.840     0.3889 0.0000e+00
     28.000     9.0059    30.6815    9.58233  100.90222    23.7351 1.6253e+00     28.453     0.3972 0.0000e+00
     29.000     9.0043    30.6848    9.58987  100.97085    23.7386 1.5982e+00     29.321     0.4154 0.0000e+00
     30.000     8.9954    30.6927    9.59060  100.97320    23.7464 1.5793e+00     30.537     0.4382 0.0000e+00
     31.000     8.9930    30.6941    9.59350  100.99195    23.7477 1.5693e+00     31.325     0.4362 0.0000e+00
     32.000     8.9904    30.7001    9.59700  101.02280    23.7533 1.5610e+00     32.211     0.4314 0.0000e+00
     33.000     8.9849    30.7054    9.59845  101.03211    23.7582 1.5553e+00     33.332     0.4340 0.0000e+00
     34.000     8.9813    30.7089    9.60116  101.05537    23.7614 1.5523e+00     34.319     0.4319 0.0000e+00
     35.000     8.9794    30.7139    9.60550  101.09447    23.7660 1.5501e+00     35.254     0.4232 0.0000e+00
     36.000 -9.990e-29 -9.990e-29 -9.990e-29 -9.990e-29 -9.990e-29 -9.990e-29 -9.990e-29 -9.990e-29 -9.990e-29
     37.000     8.9744    30.7199    9.61122  101.14126    23.7715 1.5481e+00     36.766     0.4210 0.0000e+00
     38.000     8.9700    30.7216    9.61043  101.09571    23.7732 1.5470e+00     38.242     0.4403 0.0000e+00
     39.000     8.9706    30.7263    9.60986  101.07347    23.7779 1.5467e+00     39.349     0.4381 0.0000e+00
     40.000     8.9660    30.7290    9.61324  101.10141    23.7802 1.5464e+00     40.270     0.4162 0.0000e+00
     41.000     8.9560    30.7285    9.61534  101.12449    23.7798 1.5466e+00     41.245     0.4348 0.0000e+00
     42.000     8.9552    30.7339    9.61625  101.12607    23.7845 1.5462e+00     42.005     0.4423 0.0000e+00
     43.000     8.9505    30.7444    9.62308  101.18857    23.7942 1.5462e+00     43.190     0.4300 0.0000e+00
     44.000     8.9403    30.7474    9.63386  101.29496    23.7970 1.5462e+00     44.426     0.3909 0.0000e+00
     45.000     8.9406    30.7519    9.63398  101.28909    23.8009 1.5463e+00     44.948     0.4325 0.0000e+00
     46.000     8.9292    30.7627    9.63713  101.23191    23.8108 1.5460e+00     46.398     0.4362 0.0000e+00
     47.000 -9.990e-29 -9.990e-29 -9.990e-29 -9.990e-29 -9.990e-29 -9.990e-29 -9.990e-29 -9.990e-29 -9.990e-29
     48.000     8.9225    30.7763    9.64373  101.10861    23.8233 1.5464e+00     48.183     0.4531 0.0000e+00
     49.000     8.9159    30.7816    9.65421  101.20297    23.8282 1.5462e+00     49.415     0.4517 0.0000e+00
     50.000     8.9092    30.7867    9.65996  101.25829    23.8327 1.5459e+00     50.342     0.4425 0.0000e+00
     51.000     8.8895    30.7937    9.67295  101.39107    23.8392 1.5461e+00     51.487     0.5173 0.0000e+00
     52.000     8.8791    30.8034    9.68011  101.47569    23.8478 1.5457e+00     52.356     0.4682 0.0000e+00
     53.000     8.8712    30.8256    9.67940  101.46542    23.8681 1.5462e+00     53.375     0.4706 0.0000e+00
     54.000     8.8701    30.8400    9.68375  101.48075    23.8815 1.5458e+00     54.538     0.4785 0.0000e+00
     55.000     8.8628    30.8421    9.68274  101.46190    23.8835 1.5464e+00     55.448     0.4740 0.0000e+00
     56.000     8.8577    30.8480    9.68367  101.46716    23.8889 1.5459e+00     56.503     0.4762 0.0000e+00
     57.000     8.8505    30.8549    9.68439  101.46802    23.8953 1.5459e+00     57.586     0.4906 0.0000e+00
     58.000     8.8306    30.8603    9.68815  101.50529    23.9000 1.5461e+00     58.600     0.4980 0.0000e+00
     59.000     8.7335    30.8692    9.69634  101.59487    23.9081 1.5461e+00     59.613     0.4849 0.0000e+00
     60.000     8.6789    30.9317    9.69595  101.58355    23.9647 1.5460e+00     60.612     0.4845 0.0000e+00
     61.000 -9.990e-29 -9.990e-29 -9.990e-29 -9.990e-29 -9.990e-29 -9.990e-29 -9.990e-29 -9.990e-29 -9.990e-29
     62.000     8.6614    31.0593    9.69327  101.55581    24.0832 1.5461e+00     62.493     0.5675 0.0000e+00
     63.000     8.6594    31.0674    9.69366  101.55755    24.0910 1.5459e+00     63.814     0.6351 0.0000e+00
     64.000     8.6642    31.0690    9.69131  101.52960    24.0925 1.5461e+00     64.621     0.6189 0.0000e+00
     65.000     8.6632    31.0687    9.69389  101.55984    24.0925 1.5458e+00     65.575     0.6053 0.0000e+00
     66.000     8.6475    31.0626    9.69401  101.55801    24.0866 1.5463e+00     66.740     0.6419 0.0000e+00
     67.000     8.6437    31.0664    9.69254  101.54255    24.0902 1.5463e+00     67.522     0.6075 0.0000e+00
     68.000     8.6318    31.0835    9.69657  101.58039    24.1061 1.5463e+00     68.672     0.6153 0.0000e+00
     69.000     8.6377    31.0873    9.69552  101.57982    24.1098 1.5455e+00     69.656     0.6260 0.0000e+00
     70.000     8.6330    31.0915    9.69612  101.57558    24.1138 1.5462e+00     70.536     0.6625 0.0000e+00
     71.000     8.6341    31.0929    9.70055  101.61406    24.1152 1.5462e+00     71.595     0.6820 0.0000e+00
     72.000     8.6313    31.0939    9.70152  101.61648    24.1161 1.5459e+00     72.576     0.7066 0.0000e+00
     73.000     8.6296    31.0932    9.70067  101.60587    24.1154 1.5463e+00     73.488     0.7064 0.0000e+00
     74.000     8.6315    31.0954    9.69969  101.59794    24.1176 1.5458e+00     74.506     0.6469 0.0000e+00
     75.000     8.6297    31.0979    9.69835  101.58555    24.1200 1.5462e+00     75.735     0.7142 0.0000e+00
     76.000     8.6280    31.0958    9.70507  101.65958    24.1179 1.5460e+00     76.507     0.6977 0.0000e+00
     77.000     8.6290    31.0979    9.70357  101.64614    24.1198 1.5461e+00     77.584     0.6882 0.0000e+00
     78.000     8.6279    31.0988    9.70162  101.62724    24.1208 1.5461e+00     78.317     0.7051 0.0000e+00
     79.000     8.6264    31.0987    9.69104  101.51231    24.1206 1.5457e+00     79.591     0.6708 0.0000e+00
     80.000     8.6287    31.0996    9.69224  101.52758    24.1214 1.5459e+00     80.391     0.6792 0.0000e+00
     81.000     8.6260    31.0989    9.69482  101.55120    24.1209 1.5459e+00     81.438     0.6860 0.0000e+00
     82.000     8.6211    31.0979    9.69121  101.51281    24.1200 1.5460e+00     82.349     0.6957 0.0000e+00
     83.000     8.6166    31.1026    9.68812  101.47839    24.1244 1.5461e+00     83.101     0.7170 0.0000e+00
     84.000     8.6144    31.1081    9.68906  101.48739    24.1294 1.5461e+00     84.068     0.7342 0.0000e+00
     85.000     8.6168    31.1107    9.68955  101.49684    24.1319 1.5460e+00     84.883     0.7549 0.0000e+00
     86.000     8.6196    31.1083    9.68478  101.45132    24.1298 1.5460e+00     85.825     0.7340 0.0000e+00
     87.000     8.6182    31.1070    9.68551  101.46523    24.1282 1.5464e+00     86.608     0.8290 0.0000e+00
     86.000     8.6150    31.1101    9.68582  101.47073    24.1310 1.5457e+00     85.886     0.7455 0.0000e+00
     85.000     8.6167    31.1110    9.68735  101.48553    24.1319 1.5459e+00     85.221     0.8591 0.0000e+00
     84.000     8.6188    31.1110    9.68535  101.46441    24.1319 1.5458e+00     84.451     0.7386 0.0000e+00
     83.000     8.6213    31.1085    9.68075  101.42240    24.1297 1.5459e+00     83.437     0.7506 0.0000e+00
     82.000     8.6231    31.1067    9.68176  101.44350    24.1280 1.5460e+00     82.639     0.7433 0.0000e+00
     81.000     8.6236    31.1043    9.67319  101.35786    24.1257 1.5461e+00     81.700     0.7667 0.0000e+00
     80.000     8.6249    31.1032    9.67676  101.39729    24.1248 1.5459e+00     80.741     0.7455 0.0000e+00
     79.000     8.6256    31.1019    9.68084  101.43840    24.1237 1.5459e+00     79.875     0.7026 0.0000e+00
     78.000     8.6260    31.1013    9.67876  101.41442    24.1230 1.5460e+00     78.745     0.6650 0.0000e+00
     77.000     8.6257    31.1009    9.68557  101.48661    24.1226 1.5457e+00     77.719     0.6743 0.0000e+00
     76.000     8.6257    31.1013    9.68848  101.51826    24.1230 1.5455e+00     76.891     0.6670 0.0000e+00
     75.000     8.6325    31.1003    9.69213  101.57164    24.1222 1.5457e+00     75.693     0.6717 0.0000e+00
     74.000     8.6379    31.0930    9.68978  101.57683    24.1154 1.5458e+00     74.734     0.7042 0.0000e+00
     73.000     8.6391    31.0872    9.68946  101.60465    24.1099 1.5458e+00     73.680     0.6681 0.0000e+00
     72.000     8.6388    31.0869    9.68558  101.56455    24.1097 1.5457e+00     72.679     0.6652 0.0000e+00
     71.000     8.6375    31.0884    9.68011  101.51032    24.1110 1.5456e+00     71.717     0.6489 0.0000e+00
     70.000     8.6377    31.0892    9.67908  101.49790    24.1118 1.5456e+00     70.649     0.6671 0.0000e+00
     69.000     8.6384    31.0888    9.67876  101.53369    24.1114 1.5456e+00     69.618     0.6548 0.0000e+00
     68.000     8.6443    31.0884    9.67973  101.65299    24.1111 1.5454e+00     68.654     0.6410 0.0000e+00
     67.000     8.6674    31.0828    9.66883  101.64422    24.1061 1.5455e+00     67.596     0.6580 0.0000e+00
     66.000     8.6785    31.0613    9.66341  101.58835    24.0861 1.5454e+00     66.625     0.6209 0.0000e+00
     65.000     8.6837    31.0453    9.66217  101.58615    24.0711 1.5451e+00     65.661     0.6086 0.0000e+00
     64.000     8.6881    31.0416    9.65765  101.55268    24.0675 1.5454e+00     64.622     0.6112 0.0000e+00
     63.000     8.6859    31.0392    9.65254  101.50655    24.0654 1.5456e+00     63.604     0.5918 0.0000e+00
     62.000     8.7001    31.0410    9.64970  101.48767    24.0669 1.5453e+00     62.525     0.5746 0.0000e+00
     61.000     8.7583    31.0287    9.64784  101.48438    24.0560 1.5454e+00     61.573     0.5769 0.0000e+00
     60.000     8.8215    30.9637    9.64017  101.43147    23.9967 1.5456e+00     60.640     0.5334 0.0000e+00
     59.000     8.8449    30.8799    9.63619  101.41808    23.9192 1.5453e+00     59.440     0.4861 0.0000e+00
     58.000     8.8517    30.8686    9.63117  101.37050    23.9085 1.5454e+00     58.466     0.5006 0.0000e+00
     57.000     8.8583    30.8619    9.62410  101.29711    23.9022 1.5456e+00     57.567     0.4875 0.0000e+00
     56.000     8.8645    30.8505    9.62251  101.28075    23.8917 1.5457e+00     56.319     0.5025 0.0000e+00
     55.000     8.8694    30.8483    9.62631  101.32748    23.8897 1.5453e+00     55.525     0.5247 0.0000e+00
     54.000     8.8772    30.8420    9.62947  101.37048    23.8838 1.5456e+00     54.507     0.5329 0.0000e+00
     53.000     8.8928    30.8327    9.62736  101.35863    23.8755 1.5456e+00     53.510     0.5115 0.0000e+00
     52.000     8.9106    30.8141    9.61824  101.26485    23.8585 1.5456e+00     52.438     0.4981 0.0000e+00
     51.000     8.9190    30.7971    9.61761  101.25874    23.8431 1.5456e+00     51.542     0.4920 0.0000e+00
     50.000     8.9237    30.7816    9.61461  101.23886    23.8286 1.5454e+00     50.357     0.4506 0.0000e+00
     49.000     8.9235    30.7803    9.61841  101.30098    23.8274 1.5455e+00     49.586     0.4757 0.0000e+00
     48.000     8.9255    30.7804    9.61651  101.29384    23.8275 1.5456e+00     48.528     0.4745 0.0000e+00
     47.000     8.9289    30.7772    9.61778  101.31166    23.8246 1.5455e+00     47.429     0.4917 0.0000e+00
     46.000     8.9394    30.7754    9.61378  101.27493    23.8229 1.5455e+00     46.528     0.4911 0.0000e+00
     45.000     8.9432    30.7610    9.60693  101.21698    23.8101 1.5454e+00     45.429     0.4599 0.0000e+00
     44.000     8.9429    30.7576    9.60943  101.24647    23.8068 1.5455e+00     44.455     0.4691 0.0000e+00
     43.000     8.9469    30.7574    9.60892  101.24444    23.8066 1.5452e+00     43.393     0.4713 0.0000e+00
     42.000     8.9623    30.7535    9.60930  101.25150    23.8032 1.5455e+00     42.295     0.4645 0.0000e+00
     41.000     8.9719    30.7364    9.60360  101.20035    23.7874 1.5456e+00     41.317     0.4701 0.0000e+00
     40.000     8.9745    30.7281    9.60084  101.17855    23.7796 1.5458e+00     40.479     0.4609 0.0000e+00
     39.000     8.9783    30.7212    9.59313  101.10979    23.7732 1.5461e+00     38.928     0.4478 0.0000e+00
     38.000     8.9844    30.7201    9.59583  101.14928    23.7722 1.5467e+00     38.399     0.4586 0.0000e+00
     37.000     8.9888    30.7111    9.59463  101.14574    23.7640 1.5474e+00     37.179     0.4546 0.0000e+00
     36.000     8.9908    30.7083    9.59295  101.13361    23.7613 1.5490e+00     36.305     0.4731 0.0000e+00
     35.000     8.9927    30.7048    9.59949  101.21220    23.7580 1.5512e+00     34.993     0.4182 0.0000e+00
     34.000     8.9949    30.7038    9.59248  101.13898    23.7572 1.5540e+00     34.360     0.4546 0.0000e+00
     33.000     9.0020    30.7005    9.59104  101.12740    23.7541 1.5593e+00     32.775     0.4063 0.0000e+00
     32.000     9.0041    30.6964    9.59331  101.16202    23.7503 1.5674e+00     32.278     0.4449 0.0000e+00
     31.000     9.0087    30.6927    9.58529  101.09685    23.7469 1.5791e+00     31.301     0.4429 0.0000e+00
     30.000     9.0150    30.6903    9.58553  101.13923    23.7445 1.5952e+00     30.390     0.4781 0.0000e+00
     29.000     9.0204    30.6857    9.59555  101.27244    23.7397 1.6210e+00     29.229     0.4800 0.0000e+00
     28.000     9.0221    30.6831    9.59945  101.31546    23.7370 1.6617e+00     28.390     0.4427 0.0000e+00
     27.000     9.0261    30.6813    9.58853  101.22571    23.7351 1.7143e+00     27.185     0.4300 0.0000e+00
     26.000     9.0283    30.6809    9.60266  101.39382    23.7343 1.7962e+00     26.328     0.4326 0.0000e+00
     25.000     9.0292    30.6800    9.60310  101.40990    23.7332 1.9216e+00     25.358     0.4351 0.0000e+00
     24.000     9.0328    30.6795    9.60746  101.46437    23.7326 2.1050e+00     24.255     0.4422 0.0000e+00
     23.000     9.0421    30.6791    9.60197  101.40997    23.7318 2.3680e+00     23.271     0.4369 0.0000e+00
     22.000     9.0621    30.6776    9.60158  101.41185    23.7292 2.7107e+00     22.265     0.4566 0.0000e+00
     21.000     9.0750    30.6710    9.60546  101.45884    23.7212 3.1532e+00     21.306     0.4509 0.0000e+00
     20.000     9.0788    30.6644    9.61576  101.58389    23.7135 3.7922e+00     20.209     0.4535 0.0000e+00
     19.000     9.0927    30.6634    9.60561  101.48835    23.7125 4.6337e+00     19.225     0.4371 0.0000e+00
     18.000     9.1019    30.6593    9.60836  101.52599    23.7071 5.8216e+00     18.150     0.4724 0.0000e+00
     17.000     9.1084    30.6556    9.60343  101.49799    23.7030 7.4176e+00     17.126     0.4539 0.0000e+00
     16.000     9.1103    30.6533    9.60184  101.52843    23.7001 9.5983e+00     16.079     0.4724 0.0000e+00
     15.000     9.1123    30.6526    9.61064  101.64287    23.6992 1.2613e+01     14.983     0.4539 0.0000e+00
     14.000     9.1159    30.6524    9.61303  101.70295    23.6988 1.6853e+01     14.023     0.4548 0.0000e+00
     13.000     9.1208    30.6521    9.61073  101.75300    23.6980 2.2209e+01     13.049     0.4458 0.0000e+00
     12.000     9.1291    30.6495    9.60550  101.87705    23.6955 3.0069e+01     11.980     0.4391 0.0000e+00
     11.000     9.1340    30.6443    9.59614  101.96778    23.6901 4.1290e+01     11.004     0.4495 0.0000e+00
     10.000     9.1371    30.6387    9.57605  101.89584    23.6849 5.5877e+01     10.074     0.4551 0.0000e+00
      9.000     9.1479    30.6365    9.47820  100.68273    23.6826 7.7176e+01      9.021     0.4977 0.0000e+00
      8.000     9.1646    30.6363    9.48990  100.27768    23.6812 1.0786e+02      8.085     0.4874 0.0000e+00
      7.000     9.1760    30.6357 -9.990e-29 -9.990e-29    23.6780 1.4591e+02      7.062     0.5248 0.0000e+00
      6.000     9.1810    30.6339 -9.990e-29 -9.990e-29    23.6750 2.0156e+02      6.165     0.5117 0.0000e+00
      5.000     9.2028    30.6324 -9.990e-29 -9.990e-29    23.6730 2.7354e+02      5.269     0.4575 0.0000e+00
      4.000     9.2356    30.6382 -9.990e-29 -9.990e-29    23.6765 3.7231e+02      4.345     0.4253 0.0000e+00
      3.000     9.3129    30.6318 -9.990e-29 -9.990e-29    23.6656 4.9945e+02      3.541     0.3670 0.0000e+00
      2.000     9.3956    30.6167 -9.990e-29 -9.990e-29    23.6435 6.8719e+02      2.803     0.2875 0.0000e+00
      1.000     9.4805    30.5963 -9.990e-29 -9.990e-29    23.6158 1.1086e+03      2.085     0.2327 0.0000e+00
