* Sea-Bird SBE19plus Data File:
* FileName = C:\data\otf\2007\ctd-07065.hex
* Software Version 1.55
* Temperature SN =  5061
* Conductivity SN =  5061
* System UpLoad Time = Aug 15 2007 16:15:08
* ds
* SeacatPlus V 1.6a  SERIAL NO. 5061    15 Aug 2007  15:31:53
* vbatt = 10.9, vlith =  8.7, ioper =  61.6 ma, ipump =  57.5 ma, 
* iext01 =  95.2 ma
* iext23 =  58.1 ma
* 
* status = not logging
* number of scans to average = 1
* samples = 153039, free = 288466, casts = 154
* mode = profile, minimum cond freq = 3000, pump delay = 60 sec
* autorun = no, ignore magnetic switch = no
* battery type = alkaline, battery cutoff =  7.3 volts
* pressure sensor = strain gauge, range = 870.0
* SBE 38 = no, Gas Tension Device = no
* Ext Volt 0 = yes, Ext Volt 1 = yes, Ext Volt 2 = yes, Ext Volt 3 = yes
* echo commands = yes
* output format = raw HEX
* S>
* 
* SeacatPlus V 1.6a  SERIAL NO. 5061    15 Aug 2007  15:32:18
* temperature:  05-oct-06
*     TA0 = 1.254184e-03
*     TA1 = 2.596730e-04
*     TA2 = 5.165612e-07
*     TA3 = 1.318931e-07
*     TOFFSET = 0.000000e+00
* conductivity:  05-oct-06
*     G = -9.978144e-01
*     H = 1.555200e-01
*     I = -4.839108e-04
*     J = 6.121100e-05
*     CF0 = 2.539936e+03
*     CPCOR = -9.570000e-08
*     CTCOR = 3.250000e-06
*     CSLOPE = 1.000000e+00
* pressure S/N = 2362539, range = 870 psia:  24-aug-06
*     PA0 = 2.171091e-01
*     PA1 = 2.647085e-03
*     PA2 = 1.419397e-11
*     PTCA0 = 5.242437e+05
*     PTCA1 = 7.545345e+00
*     PTCA2 = -1.835354e-01
*     PTCB0 = 2.537125e+01
*     PTCB1 = -1.750000e-03
*     PTCB2 = 0.000000e+00
*     PTEMPA0 = -5.753989e+01
*     PTEMPA1 = 5.235813e+01
*     PTEMPA2 = -4.015521e-02
*     POFFSET = 0.000000e+00
* volt 0: offset = -4.682842e-02, slope = 1.249147e+00
* volt 1: offset = -4.695158e-02, slope = 1.248145e+00
* volt 2: offset = -4.685263e-02, slope = 1.248783e+00
* volt 3: offset = -4.690316e-02, slope = 1.249508e+00
*     EXTFREQSF = 1.000002e+00
* dh
* cast  65 13 Jul 2007 11:06:17 samples 46939 to 47210, avg = 4, stop = mag switch
* S> 
# nquan = 10
# nvalues = 128                         
# units = specified
# name 0 = depSM: Depth [salt water, m]
# name 1 = tv290C: Temperature [ITS-90, deg C]
# name 2 = sal00: Salinity [PSU]
# name 3 = sbeox0Mg/L: Oxygen, SBE 43 [mg/l]
# name 4 = sbeox0PS: Oxygen, SBE 43 [% saturation]
# name 5 = sigma-t00: Density [sigma-t, Kg/m^3 ]
# name 6 = par: PAR/Irradiance, Biospherical/Licor
# name 7 = prdM: Pressure, Strain Gauge [db]
# name 8 = flECO-AFL: Fluorescence, Wetlab ECO-AFL/FL [mg/m^3]
# name 9 = flag: flag
# span 0 =      1.000,     66.000       
# span 1 =     8.4196,     8.9206       
# span 2 =    31.1611,    31.5342       
# span 3 =    9.49512,   11.30802       
# span 4 =   92.50282,  102.70151       
# span 5 =    24.1332,    24.4925       
# span 6 = 1.5415e+00, 7.9915e+02       
# span 7 =      1.935,     65.881       
# span 8 =     0.3945,     0.8491       
# span 9 = 0.0000e+00, 0.0000e+00       
# interval = meters: 1                  
# start_time = Jul 13 2007 11:06:17
# bad_flag = -9.990e-29
# sensor 0 = Frequency 0  temperature, 5061, 05-Oct-06
# sensor 1 = Frequency 1  conductivity, 5061, 05-Oct-06, cpcor = -9.5700e-08
# sensor 2 = Pressure Number
# sensor 3 = Extrnl Volt  0  irradiance (PAR), primary, 4751, 08/10/06
# sensor 4 = Extrnl Volt  1  Oxygen, SBE, primary, 1081, 10/24/06
# sensor 5 = Extrnl Volt  2  WET Labs, ECO_AFL
# sensor 6 = Extrnl Volt  3  userpoly 0, 0627, 10/11/06
# datcnv_date = Oct 15 2007 14:49:45, 5.37e
# datcnv_in = I:\bob d\OTF_GEM\2007\ctd-07065.hex I:\Willette\OTF\CTD\5061.con
# datcnv_skipover = 0
# filter_date = Oct 15 2007 15:02:25, 5.37e
# filter_in = I:\Willette\OTF\CTD\2007\CTD Data\ctd-07065.cnv
# filter_low_pass_tc_A = 1.000
# filter_low_pass_tc_B = 0.150
# filter_low_pass_A_vars = prdM
# filter_low_pass_B_vars =
# loopedit_date = Oct 15 2007 15:06:47, 5.37e
# loopedit_in = I:\Willette\OTF\CTD\2007\CTD Data\ctd-07065.cnv
# loopedit_minVelocity = 0.250                                                                                            
# loopedit_surfaceSoak: minDepth = 5.0, maxDepth = 20, useDeckPress = 1                                                   
# loopedit_excl_bad_scans = yes
# alignctd_date = Oct 15 2007 15:14:15, 5.37e
# alignctd_in = I:\Willette\OTF\CTD\2007\CTD Data\ctd-07065.cnv
# alignctd_adv = tv290C 0.500, sbeox0Mg/L 4.000, sbeox0PS 4.000                                                                                                                                                                      
# binavg_date = Oct 15 2007 15:18:44, 5.37e
# binavg_in = I:\Willette\OTF\CTD\2007\CTD Data\ctd-07065.cnv
# binavg_bintype = meters
# binavg_binsize = 1
# binavg_excl_bad_scans = yes
# binavg_skipover = 0
# binavg_surface_bin = no, min = 0.000, max = 0.000, value = 0.000
# file_type = ascii
*END*
      4.000     8.8612    31.1637    9.49512   99.72216    24.1339 2.1052e+02      4.472     0.4989 0.0000e+00
      5.000     8.8453    31.1611    9.52202  100.00622    24.1332 1.7290e+02      5.302     0.5199 0.0000e+00
      6.000     8.7913    31.2081    9.55328  100.27934    24.1728 1.3456e+02      6.339     0.5924 0.0000e+00
      7.000     8.7097    31.2194    9.58405  100.58111    24.1913 1.0918e+02      7.627     0.5845 0.0000e+00
      8.000     8.7027    31.2708    9.60086  100.74296    24.2428 8.7424e+01      8.683     0.7510 0.0000e+00
      9.000     8.6969    31.2774    9.61262  100.84449    24.2493 7.1153e+01      9.716     0.6508 0.0000e+00
     10.000     8.6917    31.2786    9.61612  100.90242    24.2503 5.6862e+01     10.597     0.6136 0.0000e+00
     11.000     8.6883    31.2832    9.63334  101.04447    24.2551 4.6147e+01     11.602     0.6419 0.0000e+00
     12.000     8.6895    31.2847    9.64283  101.05514    24.2568 3.8777e+01     12.445     0.6161 0.0000e+00
     13.000     8.6839    31.2859    9.64570  101.06498    24.2579 3.1729e+01     13.430     0.5899 0.0000e+00
     14.000     8.6835    31.2835    9.65054  101.09693    24.2561 2.5838e+01     14.356     0.5798 0.0000e+00
     15.000     8.6851    31.2841    9.65605  101.14290    24.2574 2.1118e+01     15.282     0.5778 0.0000e+00
     16.000     8.6729    31.2866    9.66385  101.19630    24.2595 1.7316e+01     16.244     0.5896 0.0000e+00
     17.000     8.6581    31.2842    9.66846  101.21505    24.2574 1.4274e+01     17.220     0.6053 0.0000e+00
     18.000     8.6552    31.2778    9.67529  101.27334    24.2544 1.1834e+01     18.183     0.5742 0.0000e+00
     19.000     8.6506    31.2906    9.68311  101.34788    24.2666 9.8398e+00     19.167     0.5523 0.0000e+00
     20.000     8.6506    31.2869    9.68994  101.39774    24.2640 8.2252e+00     20.197     0.5480 0.0000e+00
     21.000     8.6355    31.2911    9.69653  101.48513    24.2681 6.9326e+00     21.243     0.5360 0.0000e+00
     22.000     8.6314    31.2889    9.69509  101.46252    24.2662 5.8927e+00     22.153     0.5518 0.0000e+00
     23.000     8.6360    31.2948    9.70483  101.52815    24.2729 5.0837e+00     23.256     0.5701 0.0000e+00
     24.000     8.6083    31.2950    9.71130  101.58514    24.2727 4.4299e+00     24.277     0.5438 0.0000e+00
     25.000     8.5759    31.2915    9.71856  101.65252    24.2706 3.8630e+00     25.305     0.5237 0.0000e+00
     26.000     8.5660    31.3021    9.72750  101.73898    24.2836 3.4217e+00     26.364     0.5385 0.0000e+00
     27.000     8.5579    31.3249    9.73387  101.80162    24.3065 3.0691e+00     27.375     0.5519 0.0000e+00
     28.000     8.5531    31.3269    9.73401  101.80242    24.3085 2.7743e+00     28.460     0.5073 0.0000e+00
     29.000     8.5310    31.3341    9.73953  101.86650    24.3158 2.5377e+00     29.625     0.5686 0.0000e+00
     30.000     8.5151    31.3312    9.73804  101.84944    24.3139 2.3540e+00     30.631     0.5142 0.0000e+00
     31.000     8.5118    31.3477    9.73569  101.83089    24.3299 2.2014e+00     31.586     0.4711 0.0000e+00
     32.000     8.5084    31.3634    9.73942  101.84008    24.3444 2.0778e+00     32.552     0.5028 0.0000e+00
     33.000     8.4963    31.3671    9.75033  101.95442    24.3480 1.9757e+00     33.578     0.5190 0.0000e+00
     34.000     8.5054    31.3709    9.75369  101.99025    24.3514 1.8980e+00     34.480     0.4986 0.0000e+00
     35.000     8.5027    31.3797    9.75903  102.04690    24.3597 1.8311e+00     35.448     0.5243 0.0000e+00
     36.000     8.4861    31.3754    9.76367  102.09568    24.3556 1.7779e+00     36.421     0.5052 0.0000e+00
     37.000     8.4748    31.3780    9.76521  102.11322    24.3578 1.7354e+00     37.380     0.5544 0.0000e+00
     38.000     8.4702    31.3946    9.76434  102.10264    24.3727 1.6998e+00     38.334     0.5516 0.0000e+00
     39.000     8.4664    31.4094    9.76260  102.08586    24.3863 1.6711e+00     39.314     0.5443 0.0000e+00
     40.000 -9.990e-29 -9.990e-29 -9.990e-29 -9.990e-29 -9.990e-29 -9.990e-29 -9.990e-29 -9.990e-29 -9.990e-29
     41.000     8.4602    31.4176    9.75881  102.03887    24.3938 1.6364e+00     40.867     0.5515 0.0000e+00
     42.000     8.4575    31.4275    9.76457  102.09636    24.4026 1.6131e+00     42.250     0.5644 0.0000e+00
     43.000     8.4585    31.4320    9.77520  102.21038    24.4066 1.6003e+00     43.386     0.5614 0.0000e+00
     44.000     8.4625    31.4336    9.77800  102.23881    24.4082 1.5897e+00     44.411     0.5594 0.0000e+00
     45.000     8.4614    31.4307    9.77713  102.22960    24.4057 1.5820e+00     45.258     0.5518 0.0000e+00
     46.000     8.4552    31.4280    9.77589  102.21806    24.4030 1.5756e+00     46.270     0.5812 0.0000e+00
     47.000     8.4317    31.4280    9.78001  102.26167    24.4031 1.5710e+00     47.532     0.5647 0.0000e+00
     48.000     8.4362    31.4605    9.77389  102.19589    24.4295 1.5666e+00     48.388     0.5701 0.0000e+00
     49.000     8.4366    31.4813    9.77490  102.20631    24.4485 1.5630e+00     49.263     0.6140 0.0000e+00
     50.000     8.4369    31.4807    9.78673  102.33121    24.4481 1.5599e+00     50.504     0.6258 0.0000e+00
     51.000     8.4346    31.4811    9.80004  102.46874    24.4484 1.5577e+00     51.451     0.6431 0.0000e+00
     52.000     8.4378    31.4814    9.78937  102.35922    24.4486 1.5561e+00     52.288     0.6401 0.0000e+00
     53.000     8.4339    31.4890    9.78525  102.31583    24.4548 1.5547e+00     53.348     0.6279 0.0000e+00
     54.000     8.4282    31.4803    9.79188  102.38485    24.4475 1.5531e+00     54.502     0.6223 0.0000e+00
     55.000     8.4219    31.4900    9.79576  102.42406    24.4557 1.5520e+00     55.362     0.6320 0.0000e+00
     56.000     8.4219    31.5149    9.79804  102.44871    24.4759 1.5513e+00     56.241     0.6433 0.0000e+00
     57.000     8.4230    31.5228    9.80192  102.48974    24.4831 1.5503e+00     57.298     0.6822 0.0000e+00
     58.000     8.4223    31.5224    9.80492  102.52709    24.4829 1.5494e+00     58.241     0.7051 0.0000e+00
     59.000     8.4228    31.5215    9.80428  102.51800    24.4820 1.5496e+00     59.033     0.6954 0.0000e+00
     60.000     8.4230    31.5230    9.80064  102.48103    24.4832 1.5490e+00     59.965     0.6948 0.0000e+00
     61.000     8.4218    31.5209    9.79374  102.40661    24.4815 1.5489e+00     60.895     0.6884 0.0000e+00
     62.000     8.4211    31.5224    9.79160  102.38643    24.4828 1.5491e+00     61.580     0.6755 0.0000e+00
     63.000     8.4205    31.5276    9.79262  102.39566    24.4870 1.5486e+00     62.430     0.7028 0.0000e+00
     64.000     8.4201    31.5283    9.79652  102.43451    24.4876 1.5485e+00     63.216     0.7160 0.0000e+00
     65.000     8.4203    31.5300    9.80144  102.48670    24.4890 1.5523e+00     63.855     0.7150 0.0000e+00
     66.000     8.4196    31.5342    9.81287  102.60592    24.4925 1.5415e+00     65.881     0.8491 0.0000e+00
     65.000     8.4219    31.5333    9.80469  102.52070    24.4916 1.5483e+00     64.684     0.7496 0.0000e+00
     64.000     8.4217    31.5290    9.80722  102.54597    24.4879 1.5484e+00     63.911     0.7573 0.0000e+00
     63.000     8.4209    31.5317    9.80438  102.51562    24.4902 1.5485e+00     63.191     0.7578 0.0000e+00
     62.000     8.4207    31.5324    9.80735  102.54728    24.4909 1.5488e+00     62.186     0.6984 0.0000e+00
     61.000     8.4207    31.5328    9.80796  102.55534    24.4912 1.5489e+00     61.253     0.7310 0.0000e+00
     60.000     8.4226    31.5336    9.80753  102.55031    24.4919 1.5494e+00     60.404     0.7636 0.0000e+00
     59.000     8.4232    31.5273    9.80218  102.49416    24.4867 1.5495e+00     59.535     0.7439 0.0000e+00
     58.000     8.4234    31.5245    9.79396  102.40596    24.4844 1.5498e+00     58.514     0.7808 0.0000e+00
     57.000     8.4228    31.5235    9.79466  102.42418    24.4835 1.5503e+00     57.511     0.7876 0.0000e+00
     56.000     8.4223    31.5236    9.79367  102.42642    24.4836 1.5510e+00     56.472     0.7497 0.0000e+00
     55.000     8.4233    31.5252    9.79105  102.40999    24.4850 1.5516e+00     55.563     0.7768 0.0000e+00
     54.000     8.4257    31.5208    9.79732  102.47616    24.4814 1.5525e+00     54.456     0.7526 0.0000e+00
     53.000     8.4289    31.5149    9.79568  102.46031    24.4765 1.5534e+00     53.549     0.7596 0.0000e+00
     52.000     8.4274    31.5058    9.78831  102.38831    24.4688 1.5554e+00     52.524     0.7394 0.0000e+00
     51.000     8.4270    31.5094    9.78705  102.37931    24.4718 1.5572e+00     51.485     0.7528 0.0000e+00
     50.000     8.4317    31.5110    9.78416  102.34932    24.4732 1.5594e+00     50.606     0.7664 0.0000e+00
     49.000     8.4506    31.4938    9.79065  102.41847    24.4592 1.5622e+00     49.566     0.6771 0.0000e+00
     48.000     8.4602    31.4508    9.78557  102.36617    24.4229 1.5655e+00     48.644     0.6581 0.0000e+00
     47.000     8.4659    31.4264    9.79012  102.41317    24.4017 1.5702e+00     47.465     0.6505 0.0000e+00
     46.000     8.4662    31.4239    9.78837  102.40042    24.3994 1.5755e+00     46.446     0.6323 0.0000e+00
     45.000     8.4701    31.4229    9.77702  102.30733    24.3984 1.5820e+00     45.395     0.6178 0.0000e+00
     44.000     8.4733    31.4161    9.76775  102.21316    24.3925 1.5905e+00     44.372     0.6111 0.0000e+00
     43.000     8.4742    31.4118    9.76342  102.16210    24.3887 1.6009e+00     43.333     0.5896 0.0000e+00
     42.000     8.4750    31.4096    9.76741  102.23207    24.3868 1.6134e+00     42.318     0.6098 0.0000e+00
     41.000     8.4756    31.4081    9.77378  102.31851    24.3855 1.6287e+00     41.320     0.6120 0.0000e+00
     40.000     8.4753    31.4071    9.77069  102.29527    24.3846 1.6475e+00     40.388     0.6150 0.0000e+00
     39.000     8.4759    31.4075    9.75980  102.17730    24.3850 1.6713e+00     39.336     0.6172 0.0000e+00
     38.000     8.4906    31.4065    9.75797  102.15980    24.3841 1.7018e+00     38.425     0.5941 0.0000e+00
     37.000     8.4978    31.3883    9.76740  102.27848    24.3678 1.7381e+00     37.389     0.5881 0.0000e+00
     36.000     8.4937    31.3809    9.76707  102.31886    24.3610 1.7845e+00     36.475     0.5805 0.0000e+00
     35.000     8.5020    31.3852    9.76354  102.31262    24.3648 1.8410e+00     35.453     0.6177 0.0000e+00
     34.000     8.5204    31.3720    9.76040  102.30070    24.3531 1.9106e+00     34.327     0.5777 0.0000e+00
     33.000     8.5288    31.3537    9.76072  102.32784    24.3361 1.9981e+00     33.283     0.5762 0.0000e+00
     32.000     8.5272    31.3476    9.75564  102.29750    24.3302 2.1055e+00     32.275     0.5646 0.0000e+00
     31.000     8.5281    31.3488    9.75487  102.33025    24.3314 2.2417e+00     31.125     0.5653 0.0000e+00
     30.000     8.5391    31.3472    9.75120  102.33658    24.3300 2.4088e+00     30.231     0.5577 0.0000e+00
     29.000     8.5660    31.3405    9.75207  102.38100    24.3232 2.6142e+00     29.193     0.5428 0.0000e+00
     28.000     8.5788    31.3247    9.75275  102.39993    24.3068 2.8717e+00     28.144     0.5735 0.0000e+00
     27.000     8.5877    31.3169    9.75731  102.47400    24.2990 3.1817e+00     27.188     0.5266 0.0000e+00
     26.000     8.5956    31.3120    9.75960  102.50410    24.2937 3.5696e+00     26.155     0.5636 0.0000e+00
     25.000     8.6058    31.3084    9.76086  102.52583    24.2899 4.0538e+00     25.204     0.5858 0.0000e+00
     24.000     8.6213    31.3019    9.75900  102.50600    24.2831 4.6746e+00     24.099     0.5624 0.0000e+00
     23.000     8.6357    31.2961    9.75761  102.49423    24.2767 5.4270e+00     23.162     0.5617 0.0000e+00
     22.000     8.6561    31.2908    9.75399  102.45668    24.2706 6.3096e+00     22.202     0.5659 0.0000e+00
     21.000     8.6700    31.2858    9.76210  102.54311    24.2635 7.4736e+00     21.176     0.6210 0.0000e+00
     20.000     8.6725    31.2765    9.76195  102.54705    24.2533 8.8514e+00     20.133     0.6208 0.0000e+00
     19.000     8.6829    31.2767    9.75456  102.47452    24.2535 1.0593e+01     19.243     0.5928 0.0000e+00
     18.000     8.6884    31.2770    9.75330  102.46726    24.2524 1.2807e+01     18.208     0.5669 0.0000e+00
     17.000     8.6942    31.2734    9.75774  102.52341    24.2485 1.5496e+01     17.202     0.6201 0.0000e+00
     16.000     8.6920    31.2739    9.76326  102.61780    24.2482 1.8930e+01     16.262     0.5543 0.0000e+00
     15.000     8.6943    31.2737    9.75757  102.58803    24.2480 2.3209e+01     15.269     0.5557 0.0000e+00
     14.000     8.6940    31.2741    9.75533  102.58150    24.2481 2.8578e+01     14.181     0.5664 0.0000e+00
     13.000     8.6950    31.2748    9.75478  102.56850    24.2488 3.5284e+01     13.125     0.5843 0.0000e+00
     12.000     8.6982    31.2734    9.74898  102.55041    24.2474 4.3547e+01     12.037     0.5975 0.0000e+00
     11.000     8.7005    31.2717    9.75114  102.62383    24.2457 5.3560e+01     11.085     0.6056 0.0000e+00
     10.000     8.7039    31.2707   10.18355  102.70151    24.2445 6.6689e+01     10.041     0.5812 0.0000e+00
      9.000     8.7131    31.2697   10.84775  102.32030    24.2433 8.3472e+01      9.043     0.5993 0.0000e+00
      8.000     8.7345    31.2635   11.27829  101.40250    24.2372 1.0467e+02      8.035     0.6344 0.0000e+00
      7.000     8.7507    31.2464   11.23118  100.18900    24.2207 1.3116e+02      7.099     0.6641 0.0000e+00
      6.000     8.7561    31.2344   11.30802   99.49345    24.2091 1.6477e+02      6.093     0.6408 0.0000e+00
      5.000     8.7510    31.2276   11.22251   98.97714    24.2027 2.0698e+02      5.153     0.5976 0.0000e+00
      4.000     8.7652    31.2324   11.11439   98.15268    24.2072 2.5844e+02      4.279     0.5878 0.0000e+00
      3.000     8.7972    31.2248   10.97979   96.09429    24.1998 3.1991e+02      3.394     0.5168 0.0000e+00
      2.000     8.8369    31.1969   10.79296   94.12286    24.1732 3.8947e+02      2.608     0.4752 0.0000e+00
      1.000     8.9206    31.1728   10.60721   92.50282    24.1498 7.9915e+02      1.935     0.3945 0.0000e+00
