* Sea-Bird SBE19plus Data File:
* FileName = C:\data\otf\2007\ctd-07041.hex
* Software Version 1.55
* Temperature SN =  5061
* Conductivity SN =  5061
* System UpLoad Time = Aug 15 2007 16:07:39
* ds
* SeacatPlus V 1.6a  SERIAL NO. 5061    15 Aug 2007  15:31:53
* vbatt = 10.9, vlith =  8.7, ioper =  61.6 ma, ipump =  57.5 ma, 
* iext01 =  95.2 ma
* iext23 =  58.1 ma
* 
* status = not logging
* number of scans to average = 1
* samples = 153039, free = 288466, casts = 154
* mode = profile, minimum cond freq = 3000, pump delay = 60 sec
* autorun = no, ignore magnetic switch = no
* battery type = alkaline, battery cutoff =  7.3 volts
* pressure sensor = strain gauge, range = 870.0
* SBE 38 = no, Gas Tension Device = no
* Ext Volt 0 = yes, Ext Volt 1 = yes, Ext Volt 2 = yes, Ext Volt 3 = yes
* echo commands = yes
* output format = raw HEX
* S>
* 
* SeacatPlus V 1.6a  SERIAL NO. 5061    15 Aug 2007  15:32:18
* temperature:  05-oct-06
*     TA0 = 1.254184e-03
*     TA1 = 2.596730e-04
*     TA2 = 5.165612e-07
*     TA3 = 1.318931e-07
*     TOFFSET = 0.000000e+00
* conductivity:  05-oct-06
*     G = -9.978144e-01
*     H = 1.555200e-01
*     I = -4.839108e-04
*     J = 6.121100e-05
*     CF0 = 2.539936e+03
*     CPCOR = -9.570000e-08
*     CTCOR = 3.250000e-06
*     CSLOPE = 1.000000e+00
* pressure S/N = 2362539, range = 870 psia:  24-aug-06
*     PA0 = 2.171091e-01
*     PA1 = 2.647085e-03
*     PA2 = 1.419397e-11
*     PTCA0 = 5.242437e+05
*     PTCA1 = 7.545345e+00
*     PTCA2 = -1.835354e-01
*     PTCB0 = 2.537125e+01
*     PTCB1 = -1.750000e-03
*     PTCB2 = 0.000000e+00
*     PTEMPA0 = -5.753989e+01
*     PTEMPA1 = 5.235813e+01
*     PTEMPA2 = -4.015521e-02
*     POFFSET = 0.000000e+00
* volt 0: offset = -4.682842e-02, slope = 1.249147e+00
* volt 1: offset = -4.695158e-02, slope = 1.248145e+00
* volt 2: offset = -4.685263e-02, slope = 1.248783e+00
* volt 3: offset = -4.690316e-02, slope = 1.249508e+00
*     EXTFREQSF = 1.000002e+00
* dh
* cast  41 09 Jul 2007 10:10:05 samples 40289 to 40568, avg = 4, stop = mag switch
* S> 
# nquan = 10
# nvalues = 129                         
# units = specified
# name 0 = depSM: Depth [salt water, m]
# name 1 = tv290C: Temperature [ITS-90, deg C]
# name 2 = sal00: Salinity [PSU]
# name 3 = sbeox0Mg/L: Oxygen, SBE 43 [mg/l]
# name 4 = sbeox0PS: Oxygen, SBE 43 [% saturation]
# name 5 = sigma-t00: Density [sigma-t, Kg/m^3 ]
# name 6 = par: PAR/Irradiance, Biospherical/Licor
# name 7 = prdM: Pressure, Strain Gauge [db]
# name 8 = flECO-AFL: Fluorescence, Wetlab ECO-AFL/FL [mg/m^3]
# name 9 = flag: flag
# span 0 =      1.000,     67.000       
# span 1 =     7.9765,     8.5037       
# span 2 =    31.3324,    31.4953       
# span 3 =    8.76224,   10.94842       
# span 4 =   91.04536,  103.08276       
# span 5 =    24.3373,    24.5254       
# span 6 = 1.5564e+00, 5.7487e+02       
# span 7 =      1.913,     66.660       
# span 8 =     0.4179,     0.7020       
# span 9 = 0.0000e+00, 0.0000e+00       
# interval = meters: 1                  
# start_time = Jul 09 2007 10:10:05
# bad_flag = -9.990e-29
# sensor 0 = Frequency 0  temperature, 5061, 05-Oct-06
# sensor 1 = Frequency 1  conductivity, 5061, 05-Oct-06, cpcor = -9.5700e-08
# sensor 2 = Pressure Number
# sensor 3 = Extrnl Volt  0  irradiance (PAR), primary, 4751, 08/10/06
# sensor 4 = Extrnl Volt  1  Oxygen, SBE, primary, 1081, 10/24/06
# sensor 5 = Extrnl Volt  2  WET Labs, ECO_AFL
# sensor 6 = Extrnl Volt  3  userpoly 0, 0627, 10/11/06
# datcnv_date = Oct 15 2007 14:49:44, 5.37e
# datcnv_in = I:\bob d\OTF_GEM\2007\ctd-07041.hex I:\Willette\OTF\CTD\5061.con
# datcnv_skipover = 0
# filter_date = Oct 15 2007 15:02:24, 5.37e
# filter_in = I:\Willette\OTF\CTD\2007\CTD Data\ctd-07041.cnv
# filter_low_pass_tc_A = 1.000
# filter_low_pass_tc_B = 0.150
# filter_low_pass_A_vars = prdM
# filter_low_pass_B_vars =
# loopedit_date = Oct 15 2007 15:06:46, 5.37e
# loopedit_in = I:\Willette\OTF\CTD\2007\CTD Data\ctd-07041.cnv
# loopedit_minVelocity = 0.250                                                                                            
# loopedit_surfaceSoak: minDepth = 5.0, maxDepth = 20, useDeckPress = 1                                                   
# loopedit_excl_bad_scans = yes
# alignctd_date = Oct 15 2007 15:14:14, 5.37e
# alignctd_in = I:\Willette\OTF\CTD\2007\CTD Data\ctd-07041.cnv
# alignctd_adv = tv290C 0.500, sbeox0Mg/L 4.000, sbeox0PS 4.000                                                                                                                                                                      
# binavg_date = Oct 15 2007 15:18:43, 5.37e
# binavg_in = I:\Willette\OTF\CTD\2007\CTD Data\ctd-07041.cnv
# binavg_bintype = meters
# binavg_binsize = 1
# binavg_excl_bad_scans = yes
# binavg_skipover = 0
# binavg_surface_bin = no, min = 0.000, max = 0.000, value = 0.000
# file_type = ascii
*END*
      5.000     8.3472    31.3648    8.76224   91.04536    24.3710 2.2961e+02      4.964     0.4977 0.0000e+00
      6.000     8.4214    31.4475    8.85909   92.00623    24.4305 1.9075e+02      6.176     0.5156 0.0000e+00
      7.000     8.2333    31.4135    9.23356   95.74242    24.3953 1.5624e+02      7.808     0.4733 0.0000e+00
      8.000     8.2357    31.4518    9.43434   97.77170    24.4499 1.3466e+02      8.547     0.5107 0.0000e+00
      9.000     8.1973    31.4125    9.52229   98.59087    24.4226 1.1469e+02      9.523     0.5159 0.0000e+00
     10.000     8.1862    31.4301    9.59471   99.33077    24.4422 9.6451e+01     10.383     0.5029 0.0000e+00
     11.000     8.1747    31.4281    9.65489   99.95456    24.4424 8.0753e+01     11.451     0.4930 0.0000e+00
     12.000     8.1754    31.4247    9.68551  100.30838    24.4413 6.9596e+01     12.234     0.5265 0.0000e+00
     13.000     8.1711    31.4379    9.71444  100.63596    24.4525 5.8516e+01     13.283     0.5101 0.0000e+00
     14.000     8.1665    31.4261    9.72588  100.70636    24.4436 5.0189e+01     14.223     0.4884 0.0000e+00
     15.000     8.1409    31.4223    9.74024  100.83112    24.4410 4.2871e+01     15.153     0.4818 0.0000e+00
     16.000     8.1042    31.4282    9.76175  101.04751    24.4466 3.6226e+01     16.137     0.5000 0.0000e+00
     17.000     8.0938    31.4201    9.78410  101.28813    24.4467 3.1233e+01     17.204     0.4645 0.0000e+00
     18.000     8.0379    31.4337    9.79754  101.41925    24.4600 2.6603e+01     18.141     0.4651 0.0000e+00
     19.000     7.9804    31.4291    9.80918  101.52783    24.4586 2.2748e+01     19.501     0.4652 0.0000e+00
     20.000     7.9989    31.4763    9.81704  101.61011    24.5060 1.9718e+01     20.143     0.4530 0.0000e+00
     21.000     7.9976    31.4875    9.82056  101.65315    24.5166 1.6808e+01     21.270     0.4653 0.0000e+00
     22.000     8.0089    31.4866    9.82866  101.73568    24.5163 1.4574e+01     22.217     0.4678 0.0000e+00
     23.000     8.0307    31.4880    9.83472  101.78841    24.5166 1.2680e+01     23.084     0.4541 0.0000e+00
     24.000     8.0160    31.4723    9.85162  101.96172    24.5003 1.0955e+01     24.233     0.4389 0.0000e+00
     25.000     7.9835    31.4684    9.85755  102.02426    24.4968 9.6211e+00     25.103     0.4234 0.0000e+00
     26.000     7.9918    31.4807    9.85803  102.02836    24.5110 8.3978e+00     26.038     0.4412 0.0000e+00
     27.000     7.9995    31.4953    9.87122  102.16530    24.5247 7.3227e+00     27.407     0.4829 0.0000e+00
     28.000     7.9941    31.4891    9.87205  102.17020    24.5184 6.5122e+00     28.028     0.4615 0.0000e+00
     29.000     7.9880    31.4853    9.88066  102.25277    24.5152 5.7791e+00     29.104     0.4723 0.0000e+00
     30.000     7.9868    31.4902    9.87596  102.20284    24.5200 5.1670e+00     30.012     0.4683 0.0000e+00
     31.000     7.9899    31.4924    9.88813  102.32937    24.5221 4.6549e+00     31.010     0.4623 0.0000e+00
     32.000     7.9852    31.4905    9.89481  102.39760    24.5202 4.1890e+00     32.319     0.5373 0.0000e+00
     33.000     7.9845    31.4926    9.90085  102.45711    24.5226 3.7971e+00     33.472     0.4613 0.0000e+00
     34.000     7.9844    31.4931    9.90285  102.47708    24.5231 3.4780e+00     34.581     0.4924 0.0000e+00
     35.000     7.9846    31.4933    9.90289  102.47656    24.5233 3.2081e+00     35.475     0.4840 0.0000e+00
     36.000     7.9832    31.4929    9.90115  102.45897    24.5229 2.9565e+00     36.510     0.4702 0.0000e+00
     37.000     7.9810    31.4931    9.90672  102.51526    24.5232 2.7598e+00     37.323     0.4541 0.0000e+00
     38.000     7.9793    31.4932    9.90468  102.49477    24.5235 2.5724e+00     38.353     0.4734 0.0000e+00
     39.000     7.9795    31.4949    9.90581  102.50610    24.5252 2.4252e+00     39.301     0.5353 0.0000e+00
     40.000     7.9794    31.4948    9.91858  102.63900    24.5251 2.2931e+00     40.348     0.4801 0.0000e+00
     41.000     7.9791    31.4940    9.91292  102.58162    24.5245 2.1824e+00     41.306     0.4344 0.0000e+00
     42.000     7.9783    31.4942    9.90827  102.53460    24.5246 2.0852e+00     42.350     0.4815 0.0000e+00
     43.000     7.9778    31.4933    9.91568  102.61247    24.5240 2.0036e+00     43.339     0.4553 0.0000e+00
     44.000     7.9776    31.4934    9.90536  102.50801    24.5242 1.9313e+00     44.281     0.4639 0.0000e+00
     45.000     7.9777    31.4929    9.90136  102.46771    24.5238 1.8736e+00     45.434     0.4608 0.0000e+00
     46.000     7.9771    31.4935    9.91010  102.55853    24.5244 1.8200e+00     46.276     0.4575 0.0000e+00
     47.000     7.9774    31.4932    9.91203  102.57629    24.5242 1.7795e+00     47.382     0.4508 0.0000e+00
     48.000     7.9772    31.4934    9.90936  102.54369    24.5243 1.7409e+00     48.565     0.4587 0.0000e+00
     49.000     7.9777    31.4934    9.91345  102.58576    24.5243 1.7118e+00     49.511     0.4513 0.0000e+00
     50.000     7.9783    31.4938    9.91676  102.61942    24.5245 1.6874e+00     50.543     0.4422 0.0000e+00
     51.000     7.9786    31.4937    9.91981  102.65129    24.5244 1.6656e+00     51.492     0.4648 0.0000e+00
     52.000     7.9797    31.4942    9.91684  102.62325    24.5247 1.6477e+00     52.527     0.4524 0.0000e+00
     53.000     7.9803    31.4938    9.92697  102.72769    24.5243 1.6325e+00     53.556     0.4466 0.0000e+00
     54.000     7.9806    31.4935    9.92088  102.66197    24.5240 1.6204e+00     54.622     0.4600 0.0000e+00
     55.000     7.9811    31.4935    9.91108  102.56019    24.5239 1.6094e+00     55.620     0.4359 0.0000e+00
     56.000     7.9783    31.4927    9.93054  102.76190    24.5232 1.6001e+00     56.616     0.4417 0.0000e+00
     57.000     7.9778    31.4917    9.92977  102.75367    24.5227 1.5920e+00     57.636     0.4577 0.0000e+00
     58.000     7.9777    31.4921    9.92561  102.71053    24.5232 1.5846e+00     58.577     0.4643 0.0000e+00
     59.000     7.9772    31.4925    9.92075  102.66049    24.5235 1.5782e+00     59.852     0.5896 0.0000e+00
     60.000     7.9775    31.4922    9.92887  102.74539    24.5233 1.5737e+00     60.479     0.4513 0.0000e+00
     61.000     7.9790    31.4927    9.96148  103.08276    24.5238 1.5698e+00     61.693     0.4530 0.0000e+00
     62.000     7.9788    31.4924    9.91983  102.65291    24.5234 1.5662e+00     62.359     0.4793 0.0000e+00
     63.000     7.9774    31.4911    9.92580  102.71294    24.5222 1.5633e+00     63.362     0.4904 0.0000e+00
     64.000     7.9765    31.4922    9.92376  102.69178    24.5233 1.5610e+00     64.149     0.4750 0.0000e+00
     65.000     7.9766    31.4934    9.92105  102.66371    24.5244 1.5587e+00     64.851     0.4579 0.0000e+00
     66.000     7.9771    31.4939    9.92676  102.72431    24.5248 1.5572e+00     65.690     0.4663 0.0000e+00
     67.000     7.9770    31.4941    9.90879  102.53719    24.5249 1.5571e+00     66.660     0.4957 0.0000e+00
     66.000     7.9770    31.4945    9.90346  102.48362    24.5252 1.5564e+00     65.982     0.4638 0.0000e+00
     65.000     7.9773    31.4941    9.90185  102.46945    24.5249 1.5595e+00     65.027     0.5154 0.0000e+00
     64.000     7.9772    31.4943    9.90857  102.53974    24.5250 1.5610e+00     64.289     0.4961 0.0000e+00
     63.000     7.9772    31.4940    9.91234  102.57909    24.5248 1.5627e+00     63.343     0.4688 0.0000e+00
     62.000     7.9766    31.4941    9.89960  102.44627    24.5249 1.5651e+00     62.474     0.4877 0.0000e+00
     61.000     7.9767    31.4945    9.89798  102.43007    24.5253 1.5685e+00     61.493     0.4953 0.0000e+00
     60.000     7.9771    31.4947    9.90778  102.53245    24.5254 1.5720e+00     60.559     0.5148 0.0000e+00
     59.000     7.9776    31.4938    9.89512  102.40177    24.5247 1.5772e+00     59.551     0.5076 0.0000e+00
     58.000     7.9789    31.4929    9.90260  102.48100    24.5239 1.5832e+00     58.541     0.5072 0.0000e+00
     57.000     7.9795    31.4924    9.89805  102.43392    24.5233 1.5900e+00     57.621     0.5092 0.0000e+00
     56.000     7.9797    31.4915    9.90650  102.52005    24.5225 1.5975e+00     56.392     0.5165 0.0000e+00
     55.000     7.9799    31.4921    9.90195  102.46935    24.5230 1.6073e+00     55.614     0.4597 0.0000e+00
     54.000     7.9793    31.4916    9.90642  102.51439    24.5225 1.6177e+00     54.576     0.4518 0.0000e+00
     53.000     7.9799    31.4912    9.90095  102.45698    24.5223 1.6307e+00     53.613     0.4888 0.0000e+00
     52.000     7.9804    31.4915    9.90509  102.50098    24.5224 1.6461e+00     52.604     0.4802 0.0000e+00
     51.000     7.9807    31.4910    9.90661  102.51823    24.5220 1.6642e+00     51.535     0.4697 0.0000e+00
     50.000     7.9814    31.4917    9.90536  102.50471    24.5225 1.6853e+00     50.568     0.4901 0.0000e+00
     49.000     7.9804    31.4913    9.90712  102.52386    24.5221 1.7113e+00     49.536     0.4848 0.0000e+00
     48.000     7.9788    31.4913    9.91106  102.56406    24.5223 1.7417e+00     48.533     0.4746 0.0000e+00
     47.000     7.9782    31.4921    9.91341  102.58607    24.5231 1.7760e+00     47.398     0.5023 0.0000e+00
     46.000     7.9781    31.4921    9.90971  102.54533    24.5232 1.8179e+00     46.415     0.4620 0.0000e+00
     45.000     7.9788    31.4923    9.90209  102.46698    24.5234 1.8690e+00     45.363     0.4455 0.0000e+00
     44.000     7.9786    31.4924    9.90673  102.51759    24.5233 1.9282e+00     44.382     0.4816 0.0000e+00
     43.000     7.9790    31.4931    9.90366  102.48867    24.5238 1.9932e+00     43.268     0.4880 0.0000e+00
     42.000     7.9791    31.4930    9.90662  102.52354    24.5237 2.0705e+00     42.306     0.4649 0.0000e+00
     41.000     7.9789    31.4925    9.89427  102.39937    24.5234 2.1554e+00     41.289     0.4791 0.0000e+00
     40.000     7.9774    31.4925    9.89426  102.40915    24.5234 2.2645e+00     40.324     0.5019 0.0000e+00
     39.000     7.9769    31.4931    9.88952  102.36649    24.5240 2.3930e+00     39.342     0.4856 0.0000e+00
     38.000     7.9766    31.4938    9.87825  102.24948    24.5247 2.5369e+00     38.406     0.4727 0.0000e+00
     37.000     7.9771    31.4940    9.88791  102.35197    24.5249 2.7230e+00     37.394     0.5019 0.0000e+00
     36.000     7.9786    31.4942    9.88922  102.37576    24.5249 2.9372e+00     36.458     0.4996 0.0000e+00
     35.000     7.9803    31.4936    9.88523  102.34145    24.5243 3.1901e+00     35.224     0.4742 0.0000e+00
     34.000     7.9822    31.4936    9.89530  102.45355    24.5241 3.4725e+00     34.401     0.5247 0.0000e+00
     33.000     7.9861    31.4928    9.89406  102.45255    24.5231 3.8158e+00     33.377     0.4644 0.0000e+00
     32.000     7.9905    31.4912    9.88842  102.40892    24.5213 4.2306e+00     32.339     0.4457 0.0000e+00
     31.000     7.9914    31.4886    9.89312  102.47431    24.5186 4.6974e+00     31.220     0.5544 0.0000e+00
     30.000     7.9916    31.4878    9.88719  102.42444    24.5179 5.2201e+00     30.271     0.4825 0.0000e+00
     29.000     7.9979    31.4886    9.88087  102.38077    24.5185 5.8406e+00     29.139     0.4838 0.0000e+00
     28.000     7.9999    31.4855    9.87433  102.35588    24.5153 6.5909e+00     28.249     0.4542 0.0000e+00
     27.000     8.0047    31.4838    9.85803  102.27364    24.5136 7.4496e+00     27.155     0.5256 0.0000e+00
     26.000     8.0106    31.4816    9.85010  102.22125    24.5112 8.4332e+00     26.102     0.4621 0.0000e+00
     25.000     8.0170    31.4787    9.84773  102.22542    24.5081 9.5750e+00     25.127     0.4646 0.0000e+00
     24.000     8.0227    31.4750    9.83646  102.13615    24.5043 1.0873e+01     24.142     0.4310 0.0000e+00
     23.000     8.0302    31.4729    9.82205  102.00209    24.5018 1.2441e+01     23.065     0.4336 0.0000e+00
     22.000     8.0349    31.4694    9.82641  102.05379    24.4982 1.4229e+01     22.122     0.4495 0.0000e+00
     21.000     8.0451    31.4684    9.83663  102.16548    24.4967 1.6254e+01     21.000     0.4529 0.0000e+00
     20.000     8.0654    31.4647    9.82639  102.06200    24.4927 1.8677e+01     20.161     0.4814 0.0000e+00
     19.000     8.1001    31.4561    9.82713  102.07365    24.4832 2.1726e+01     19.189     0.4873 0.0000e+00
     18.000     8.1179    31.4399    9.83636  102.17766    24.4657 2.5172e+01     18.195     0.4846 0.0000e+00
     17.000     8.1298    31.4234    9.83256  102.17638    24.4494 2.9336e+01     17.118     0.4985 0.0000e+00
     16.000     8.1434    31.4196    9.83789  102.26782    24.4450 3.4177e+01     16.119     0.4799 0.0000e+00
     15.000     8.1543    31.4122    9.84725  102.39089    24.4373 3.9713e+01     15.071     0.4978 0.0000e+00
     14.000     8.1585    31.4071    9.84836  102.45481    24.4316 4.6175e+01     14.063     0.4818 0.0000e+00
     13.000     8.1621    31.4039    9.84512  102.51228    24.4284 5.3866e+01     13.066     0.5014 0.0000e+00
     12.000     8.1638    31.4021    9.84752  102.66000    24.4264 6.3247e+01     12.107     0.5657 0.0000e+00
     11.000     8.1659    31.4001    9.83310  102.67524    24.4244 7.3984e+01     10.907     0.7020 0.0000e+00
     10.000     8.1674    31.4002    9.82028  102.67648    24.4244 8.7291e+01     10.166     0.5367 0.0000e+00
      9.000     8.1721    31.3989    9.74931  101.91034    24.4231 1.0181e+02      8.935     0.5185 0.0000e+00
      8.000     8.1873    31.3985    9.92009  101.16094    24.4224 1.2001e+02      8.250     0.5551 0.0000e+00
      7.000     8.2057    31.3948   10.94842  100.84049    24.4173 1.4222e+02      7.136     0.5115 0.0000e+00
      6.000     8.2148    31.3921 -9.990e-29 -9.990e-29    24.4134 1.6859e+02      6.362     0.5399 0.0000e+00
      5.000     8.2384    31.3850 -9.990e-29 -9.990e-29    24.4053 1.9961e+02      5.272     0.5013 0.0000e+00
      4.000     8.2756    31.3833 -9.990e-29 -9.990e-29    24.4023 2.4189e+02      4.458     0.4746 0.0000e+00
      3.000     8.3447    31.3682 -9.990e-29 -9.990e-29    24.3839 2.8778e+02      3.417     0.4611 0.0000e+00
      2.000     8.4126    31.3518 -9.990e-29 -9.990e-29    24.3629 3.6524e+02      2.673     0.4527 0.0000e+00
      1.000     8.5037    31.3324 -9.990e-29 -9.990e-29    24.3373 5.7487e+02      1.913     0.4179 0.0000e+00
