* Sea-Bird SBE19plus Data File:
* FileName = C:\data\otf\2007\ctd-07020.hex
* Software Version 1.55
* Temperature SN =  5061
* Conductivity SN =  5061
* System UpLoad Time = Aug 15 2007 15:58:29
* ds
* SeacatPlus V 1.6a  SERIAL NO. 5061    15 Aug 2007  15:31:53
* vbatt = 10.9, vlith =  8.7, ioper =  61.6 ma, ipump =  57.5 ma, 
* iext01 =  95.2 ma
* iext23 =  58.1 ma
* 
* status = not logging
* number of scans to average = 1
* samples = 153039, free = 288466, casts = 154
* mode = profile, minimum cond freq = 3000, pump delay = 60 sec
* autorun = no, ignore magnetic switch = no
* battery type = alkaline, battery cutoff =  7.3 volts
* pressure sensor = strain gauge, range = 870.0
* SBE 38 = no, Gas Tension Device = no
* Ext Volt 0 = yes, Ext Volt 1 = yes, Ext Volt 2 = yes, Ext Volt 3 = yes
* echo commands = yes
* output format = raw HEX
* S>
* 
* SeacatPlus V 1.6a  SERIAL NO. 5061    15 Aug 2007  15:32:18
* temperature:  05-oct-06
*     TA0 = 1.254184e-03
*     TA1 = 2.596730e-04
*     TA2 = 5.165612e-07
*     TA3 = 1.318931e-07
*     TOFFSET = 0.000000e+00
* conductivity:  05-oct-06
*     G = -9.978144e-01
*     H = 1.555200e-01
*     I = -4.839108e-04
*     J = 6.121100e-05
*     CF0 = 2.539936e+03
*     CPCOR = -9.570000e-08
*     CTCOR = 3.250000e-06
*     CSLOPE = 1.000000e+00
* pressure S/N = 2362539, range = 870 psia:  24-aug-06
*     PA0 = 2.171091e-01
*     PA1 = 2.647085e-03
*     PA2 = 1.419397e-11
*     PTCA0 = 5.242437e+05
*     PTCA1 = 7.545345e+00
*     PTCA2 = -1.835354e-01
*     PTCB0 = 2.537125e+01
*     PTCB1 = -1.750000e-03
*     PTCB2 = 0.000000e+00
*     PTEMPA0 = -5.753989e+01
*     PTEMPA1 = 5.235813e+01
*     PTEMPA2 = -4.015521e-02
*     POFFSET = 0.000000e+00
* volt 0: offset = -4.682842e-02, slope = 1.249147e+00
* volt 1: offset = -4.695158e-02, slope = 1.248145e+00
* volt 2: offset = -4.685263e-02, slope = 1.248783e+00
* volt 3: offset = -4.690316e-02, slope = 1.249508e+00
*     EXTFREQSF = 1.000002e+00
* dh
* cast  20 05 Jul 2007 13:56:02 samples 31159 to 31448, avg = 4, stop = mag switch
* S> 
# nquan = 10
# nvalues = 151                         
# units = specified
# name 0 = depSM: Depth [salt water, m]
# name 1 = tv290C: Temperature [ITS-90, deg C]
# name 2 = sal00: Salinity [PSU]
# name 3 = sbeox0Mg/L: Oxygen, SBE 43 [mg/l]
# name 4 = sbeox0PS: Oxygen, SBE 43 [% saturation]
# name 5 = sigma-t00: Density [sigma-t, Kg/m^3 ]
# name 6 = par: PAR/Irradiance, Biospherical/Licor
# name 7 = prdM: Pressure, Strain Gauge [db]
# name 8 = flECO-AFL: Fluorescence, Wetlab ECO-AFL/FL [mg/m^3]
# name 9 = flag: flag
# span 0 =      1.000,     78.000       
# span 1 =     7.9717,     8.9853       
# span 2 =    30.3909,    31.4950       
# span 3 =    8.69079,   11.28631       
# span 4 =   91.28234,  108.44258       
# span 5 =    23.5184,    24.5263       
# span 6 = 1.5477e+00, 4.6353e+02       
# span 7 =      1.858,     76.648       
# span 8 =     0.5081,     0.9398       
# span 9 = 0.0000e+00, 0.0000e+00       
# interval = meters: 1                  
# start_time = Jul 05 2007 13:56:02
# bad_flag = -9.990e-29
# sensor 0 = Frequency 0  temperature, 5061, 05-Oct-06
# sensor 1 = Frequency 1  conductivity, 5061, 05-Oct-06, cpcor = -9.5700e-08
# sensor 2 = Pressure Number
# sensor 3 = Extrnl Volt  0  irradiance (PAR), primary, 4751, 08/10/06
# sensor 4 = Extrnl Volt  1  Oxygen, SBE, primary, 1081, 10/24/06
# sensor 5 = Extrnl Volt  2  WET Labs, ECO_AFL
# sensor 6 = Extrnl Volt  3  userpoly 0, 0627, 10/11/06
# datcnv_date = Oct 15 2007 14:49:43, 5.37e
# datcnv_in = I:\bob d\OTF_GEM\2007\ctd-07020.hex I:\Willette\OTF\CTD\5061.con
# datcnv_skipover = 0
# filter_date = Oct 15 2007 15:02:22, 5.37e
# filter_in = I:\Willette\OTF\CTD\2007\CTD Data\ctd-07020.cnv
# filter_low_pass_tc_A = 1.000
# filter_low_pass_tc_B = 0.150
# filter_low_pass_A_vars = prdM
# filter_low_pass_B_vars =
# loopedit_date = Oct 15 2007 15:06:45, 5.37e
# loopedit_in = I:\Willette\OTF\CTD\2007\CTD Data\ctd-07020.cnv
# loopedit_minVelocity = 0.250                                                                                            
# loopedit_surfaceSoak: minDepth = 5.0, maxDepth = 20, useDeckPress = 1                                                   
# loopedit_excl_bad_scans = yes
# alignctd_date = Oct 15 2007 15:14:13, 5.37e
# alignctd_in = I:\Willette\OTF\CTD\2007\CTD Data\ctd-07020.cnv
# alignctd_adv = tv290C 0.500, sbeox0Mg/L 4.000, sbeox0PS 4.000                                                                                                                                                                      
# binavg_date = Oct 15 2007 15:18:42, 5.37e
# binavg_in = I:\Willette\OTF\CTD\2007\CTD Data\ctd-07020.cnv
# binavg_bintype = meters
# binavg_binsize = 1
# binavg_excl_bad_scans = yes
# binavg_skipover = 0
# binavg_surface_bin = no, min = 0.000, max = 0.000, value = 0.000
# file_type = ascii
*END*
      5.000     8.9853    30.4000    8.69079   91.28234    23.5234 8.0032e+01      4.807     0.8028 0.0000e+00
      6.000     8.9564    30.4098    8.85289   92.96094    23.5307 5.4955e+01      5.653     0.7601 0.0000e+00
      7.000     8.9538    30.4162    8.97015   94.00843    23.5368 3.8705e+01      7.036     0.6833 0.0000e+00
      8.000     8.9231    30.4154    9.09793   94.81450    23.5413 2.7067e+01      8.808     0.6605 0.0000e+00
      9.000     8.9281    30.4189    9.36833   97.59292    23.5437 1.9847e+01      9.615     0.6863 0.0000e+00
     10.000     8.9377    30.4084    9.57319   99.68745    23.5359 1.4346e+01     10.476     0.6843 0.0000e+00
     11.000     8.9199    30.4189    9.68289  100.77090    23.5431 1.0164e+01     11.696     0.6637 0.0000e+00
     12.000     8.9254    30.4080    9.72279  101.14516    23.5360 8.0633e+00     12.266     0.6494 0.0000e+00
     13.000     8.8979    30.4111    9.77749  101.64985    23.5384 5.9255e+00     13.490     0.6643 0.0000e+00
     14.000     8.8380    30.4190    9.81170  101.99806    23.5470 4.5224e+00     14.333     0.6554 0.0000e+00
     15.000     8.6755    30.4515    9.85787  102.43917    23.5795 3.6427e+00     15.503     0.6036 0.0000e+00
     16.000     8.5846    30.5563    9.89012  102.72975    23.6770 3.0820e+00     16.318     0.5480 0.0000e+00
     17.000     8.5268    30.6663    9.88648  102.63201    23.7781 2.6647e+00     17.143     0.5264 0.0000e+00
     18.000     8.4625    30.7753    9.92547  102.99102    23.8782 2.3396e+00     18.216     0.5081 0.0000e+00
     19.000     8.4209    30.8520    9.95530  103.27470    23.9485 2.1238e+00     19.293     0.5137 0.0000e+00
     20.000     8.3995    30.9068    9.98982  103.60626    23.9988 1.9594e+00     20.396     0.5339 0.0000e+00
     21.000     8.3725    30.9347   10.00765  103.77085    24.0242 1.8523e+00     21.451     0.5534 0.0000e+00
     22.000     8.3455    30.9561   10.01837  103.86379    24.0434 1.7712e+00     22.308     0.5840 0.0000e+00
     23.000     8.3110    30.9927   10.03980  104.06933    24.0762 1.7052e+00     23.341     0.5760 0.0000e+00
     24.000     8.2975    31.0309   10.04586  104.12982    24.1107 1.6657e+00     24.276     0.5865 0.0000e+00
     25.000     8.2933    31.0577   10.05174  104.18781    24.1349 1.6351e+00     24.971     0.5858 0.0000e+00
     26.000     8.2623    31.0776   10.07174  104.37038    24.1529 1.6080e+00     26.403     0.6230 0.0000e+00
     27.000     8.2149    31.1084   10.10416  104.70233    24.1798 1.5928e+00     27.680     0.6286 0.0000e+00
     28.000     8.1626    31.1576   10.08758  104.52046    24.2232 1.5826e+00     28.686     0.6134 0.0000e+00
     29.000     8.1561    31.1969   10.10323  104.68180    24.2576 1.5761e+00     29.324     0.6567 0.0000e+00
     30.000     8.1426    31.2597   10.11707  104.79921    24.3137 1.5696e+00     30.527     0.6656 0.0000e+00
     31.000     8.1310    31.2768   10.11504  104.77283    24.3291 1.5653e+00     31.425     0.6723 0.0000e+00
     32.000     8.1152    31.2956   10.12317  104.85500    24.3458 1.5611e+00     32.489     0.6870 0.0000e+00
     33.000     8.1060    31.3149   10.14467  105.07496    24.3629 1.5586e+00     33.540     0.7173 0.0000e+00
     34.000     8.0968    31.3282   10.12938  104.91988    24.3749 1.5566e+00     34.253     0.7021 0.0000e+00
     35.000     8.0888    31.3394   10.12166  104.82206    24.3850 1.5549e+00     35.176     0.6906 0.0000e+00
     36.000     8.0862    31.3600   10.10376  104.59147    24.4034 1.5539e+00     36.460     0.7237 0.0000e+00
     37.000     8.0835    31.3639   10.11699  104.73639    24.4071 1.5533e+00     37.268     0.7568 0.0000e+00
     38.000     8.0718    31.3649   10.12387  104.85069    24.4080 1.5521e+00     38.288     0.7627 0.0000e+00
     39.000     8.0631    31.3716   10.10229  104.63240    24.4138 1.5514e+00     39.407     0.7433 0.0000e+00
     40.000     8.0657    31.3917   10.15588  105.16962    24.4315 1.5512e+00     40.379     0.7592 0.0000e+00
     41.000     8.0599    31.3919   10.13623  104.95075    24.4322 1.5509e+00     41.376     0.7414 0.0000e+00
     42.000     8.0489    31.3939   10.14227  105.00332    24.4341 1.5509e+00     42.416     0.7768 0.0000e+00
     43.000     8.0416    31.4003   10.14041  104.96467    24.4397 1.5506e+00     43.324     0.7670 0.0000e+00
     44.000     8.0381    31.4126   10.13696  104.91772    24.4507 1.5503e+00     44.254     0.7686 0.0000e+00
     45.000     8.0378    31.4218   10.16550  105.20906    24.4591 1.5502e+00     45.192     0.7774 0.0000e+00
     46.000     8.0362    31.4255   10.17450  105.30130    24.4625 1.5502e+00     46.315     0.7804 0.0000e+00
     47.000     8.0400    31.4246   10.20344  105.60128    24.4617 1.5502e+00     47.452     0.7622 0.0000e+00
     48.000     8.0155    31.4258   10.13428  104.89130    24.4629 1.5498e+00     48.206     0.7387 0.0000e+00
     49.000     8.0042    31.4359   10.16458  105.20414    24.4717 1.5501e+00     49.220     0.7437 0.0000e+00
     50.000     8.0265    31.4619   10.15778  105.12970    24.4956 1.5498e+00     50.333     0.7652 0.0000e+00
     51.000     8.0327    31.4555   10.19198  105.48127    24.4905 1.5495e+00     51.330     0.7815 0.0000e+00
     52.000     8.0188    31.4271   10.17305  105.28632    24.4640 1.5496e+00     52.670     0.7953 0.0000e+00
     53.000     8.0111    31.4389   10.18130  105.37139    24.4747 1.5495e+00     53.776     0.8143 0.0000e+00
     54.000     8.0062    31.4494   10.20505  105.61859    24.4841 1.5498e+00     54.427     0.7895 0.0000e+00
     55.000     7.9897    31.4580   10.18937  105.45867    24.4921 1.5496e+00     55.766     0.8113 0.0000e+00
     56.000     7.9877    31.4720   10.16398  105.19752    24.5049 1.5495e+00     56.672     0.8314 0.0000e+00
     57.000     7.9867    31.4789   10.20235  105.59368    24.5113 1.5495e+00     57.870     0.8439 0.0000e+00
     58.000     7.9869    31.4808   10.18363  105.38917    24.5131 1.5496e+00     58.766     0.8114 0.0000e+00
     59.000     7.9898    31.4812   10.17776  105.31774    24.5134 1.5496e+00     59.617     0.7797 0.0000e+00
     60.000     7.9905    31.4808   10.19612  105.50559    24.5130 1.5495e+00     60.411     0.7741 0.0000e+00
     61.000     7.9891    31.4771   10.20586  105.60621    24.5098 1.5495e+00     61.503     0.7866 0.0000e+00
     62.000     7.9869    31.4767   10.18153  105.35246    24.5093 1.5491e+00     62.491     0.7948 0.0000e+00
     63.000     7.9860    31.4790   10.20535  105.59845    24.5114 1.5492e+00     63.504     0.7687 0.0000e+00
     64.000     7.9872    31.4807   10.19381  105.47639    24.5130 1.5494e+00     64.455     0.7867 0.0000e+00
     65.000     7.9870    31.4816   10.19664  105.50394    24.5138 1.5494e+00     65.370     0.7826 0.0000e+00
     66.000     7.9872    31.4803   10.20104  105.54918    24.5127 1.5496e+00     66.299     0.7972 0.0000e+00
     67.000     7.9885    31.4808   10.18974  105.43361    24.5131 1.5491e+00     67.318     0.7875 0.0000e+00
     68.000     7.9894    31.4799   10.19547  105.49438    24.5122 1.5496e+00     68.508     0.8128 0.0000e+00
     69.000     7.9894    31.4786   10.18704  105.40733    24.5110 1.5490e+00     69.248     0.8299 0.0000e+00
     70.000     7.9809    31.4783   10.17014  105.23097    24.5107 1.5487e+00     70.672     0.8109 0.0000e+00
     71.000     7.9764    31.4820   10.18576  105.39326    24.5142 1.5491e+00     71.326     0.8668 0.0000e+00
     72.000     7.9757    31.4926   10.17694  105.30077    24.5239 1.5489e+00     72.533     0.7672 0.0000e+00
     73.000     7.9744    31.4921   10.16685  105.19729    24.5237 1.5492e+00     73.293     0.8910 0.0000e+00
     74.000     7.9738    31.4920   10.18236  105.35868    24.5236 1.5486e+00     74.168     0.8301 0.0000e+00
     75.000     7.9725    31.4924   10.19411  105.48047    24.5239 1.5487e+00     74.948     0.8476 0.0000e+00
     76.000     7.9717    31.4938   10.16691  105.19928    24.5253 1.5489e+00     75.693     0.8442 0.0000e+00
     77.000     7.9725    31.4950   10.17254  105.25845    24.5262 1.5489e+00     76.339     0.8836 0.0000e+00
     78.000     7.9732    31.4950   10.19034  105.44530    24.5263 1.5489e+00     76.648     0.8200 0.0000e+00
     77.000     7.9727    31.4947   10.18925  105.43931    24.5259 1.5484e+00     76.480     0.8850 0.0000e+00
     76.000     7.9724    31.4948   10.19956  105.55614    24.5260 1.5485e+00     75.774     0.9298 0.0000e+00
     75.000 -9.990e-29 -9.990e-29 -9.990e-29 -9.990e-29 -9.990e-29 -9.990e-29 -9.990e-29 -9.990e-29 -9.990e-29
     74.000     7.9735    31.4943   10.18990  105.46602    24.5257 1.5487e+00     74.354     0.8945 0.0000e+00
     73.000     7.9734    31.4936   10.18443  105.41135    24.5250 1.5485e+00     73.520     0.8923 0.0000e+00
     72.000     7.9742    31.4936   10.19737  105.54479    24.5250 1.5484e+00     72.546     0.8830 0.0000e+00
     71.000     7.9756    31.4930   10.19304  105.49123    24.5245 1.5484e+00     71.611     0.8508 0.0000e+00
     70.000     7.9757    31.4915   10.19863  105.54863    24.5230 1.5484e+00     70.475     0.8766 0.0000e+00
     69.000     7.9777    31.4910   10.19946  105.55568    24.5226 1.5485e+00     69.710     0.8678 0.0000e+00
     68.000     7.9815    31.4901   10.20340  105.59906    24.5219 1.5485e+00     68.705     0.9398 0.0000e+00
     67.000     7.9873    31.4846   10.19337  105.50161    24.5168 1.5484e+00     67.684     0.8441 0.0000e+00
     66.000     7.9898    31.4793   10.18297  105.39819    24.5117 1.5487e+00     66.540     0.9068 0.0000e+00
     65.000     7.9913    31.4777   10.19795  105.55504    24.5103 1.5482e+00     65.741     0.8388 0.0000e+00
     64.000     7.9908    31.4757   10.19104  105.48803    24.5084 1.5483e+00     64.602     0.8489 0.0000e+00
     63.000     7.9856    31.4761   10.18932  105.46894    24.5088 1.5483e+00     63.643     0.8432 0.0000e+00
     62.000     7.9860    31.4849   10.18954  105.46780    24.5170 1.5483e+00     62.422     0.8216 0.0000e+00
     61.000     7.9848    31.4807   10.19747  105.55469    24.5132 1.5482e+00     61.663     0.8380 0.0000e+00
     60.000     7.9876    31.4812   10.20566  105.63865    24.5137 1.5482e+00     60.700     0.8391 0.0000e+00
     59.000     7.9920    31.4778   10.19213  105.48679    24.5106 1.5482e+00     59.475     0.9144 0.0000e+00
     58.000     7.9927    31.4740   10.20144  105.58942    24.5071 1.5481e+00     58.524     0.8487 0.0000e+00
     57.000     7.9952    31.4731   10.19417  105.51759    24.5063 1.5482e+00     57.651     0.8349 0.0000e+00
     56.000     7.9971    31.4699   10.21835  105.76622    24.5033 1.5479e+00     56.483     0.8476 0.0000e+00
     55.000     7.9949    31.4691   10.19359  105.51174    24.5025 1.5482e+00     55.536     0.8751 0.0000e+00
     54.000     7.9950    31.4715   10.19796  105.58548    24.5047 1.5480e+00     54.479     0.8647 0.0000e+00
     53.000     7.9992    31.4708   10.20438  105.70884    24.5041 1.5481e+00     53.592     0.8096 0.0000e+00
     52.000     7.9916    31.4690   10.19746  105.66990    24.5024 1.5479e+00     52.539     0.8591 0.0000e+00
     51.000     7.9919    31.4760   10.18525  105.55217    24.5088 1.5477e+00     51.335     0.8152 0.0000e+00
     50.000     7.9945    31.4750   10.19698  105.66184    24.5080 1.5480e+00     50.609     0.8748 0.0000e+00
     49.000     7.9949    31.4706   10.19079  105.59212    24.5039 1.5478e+00     49.436     0.8334 0.0000e+00
     48.000     7.9933    31.4706   10.19843  105.69932    24.5039 1.5478e+00     48.467     0.7819 0.0000e+00
     47.000     8.0074    31.4715   10.19036  105.62517    24.5048 1.5478e+00     47.491     0.8254 0.0000e+00
     46.000     8.0431    31.4541   10.18479  105.58659    24.4894 1.5480e+00     46.576     0.8026 0.0000e+00
     45.000     8.0734    31.4012   10.18513  105.60651    24.4416 1.5481e+00     45.409     0.7930 0.0000e+00
     44.000     8.0748    31.3755   10.18808  105.64684    24.4182 1.5479e+00     44.456     0.7585 0.0000e+00
     43.000     8.0641    31.3759   10.18605  105.62609    24.4183 1.5480e+00     43.472     0.7341 0.0000e+00
     42.000     8.0717    31.3938   10.19521  105.73603    24.4345 1.5484e+00     42.345     0.7519 0.0000e+00
     41.000     8.0802    31.3803   10.19156  105.71044    24.4225 1.5485e+00     41.443     0.7967 0.0000e+00
     40.000     8.0976    31.3607   10.16747  105.46877    24.4045 1.5483e+00     40.056     0.7530 0.0000e+00
     39.000     8.1041    31.3506   10.18776  105.72026    24.3959 1.5491e+00     39.460     0.7230 0.0000e+00
     38.000     8.1157    31.3310   10.17767  105.66696    24.3785 1.5496e+00     38.235     0.7537 0.0000e+00
     37.000     8.1154    31.3203   10.16425  105.53465    24.3689 1.5506e+00     37.332     0.7195 0.0000e+00
     36.000     8.1209    31.3196   10.15652  105.50050    24.3683 1.5509e+00     36.298     0.7200 0.0000e+00
     35.000     8.1337    31.3135   10.15869  105.56006    24.3629 1.5520e+00     35.345     0.7628 0.0000e+00
     34.000     8.1389    31.2942   10.13944  105.38182    24.3459 1.5538e+00     34.240     0.6861 0.0000e+00
     33.000     8.1522    31.2850   10.11633  105.15873    24.3377 1.5557e+00     33.093     0.7497 0.0000e+00
     32.000     8.1822    31.2722   10.14516  105.52376    24.3268 1.5579e+00     32.406     0.6829 0.0000e+00
     31.000     8.2025    31.2179   10.12548  105.36296    24.2787 1.5605e+00     31.269     0.6392 0.0000e+00
     30.000     8.2178    31.1884   10.09024  105.01746    24.2522 1.5659e+00     29.975     0.7451 0.0000e+00
     29.000     8.2413    31.1778   10.09856  105.13824    24.2433 1.5711e+00     29.340     0.7074 0.0000e+00
     28.000     8.2677    31.1345   10.07387  104.93063    24.2053 1.5778e+00     28.299     0.6132 0.0000e+00
     27.000     8.2807    31.1012   10.07197  104.98318    24.1754 1.5882e+00     27.280     0.6171 0.0000e+00
     26.000     8.2920    31.0823   10.05166  104.86128    24.1584 1.6037e+00     26.167     0.5941 0.0000e+00
     25.000     8.3418    31.0669   10.07598  105.23844    24.1446 1.6232e+00     24.927     0.6159 0.0000e+00
     24.000     8.3603    31.0253   10.04734  105.02496    24.1078 1.6506e+00     24.336     0.5871 0.0000e+00
     23.000     8.3728    30.9859   10.03179  105.03227    24.0721 1.6940e+00     23.296     0.5887 0.0000e+00
     22.000     8.4000    30.9628   10.01818  105.09540    24.0512 1.7483e+00     22.074     0.5760 0.0000e+00
     21.000     8.4254    30.9343   10.00684  105.04544    24.0259 1.8202e+00     21.190     0.5597 0.0000e+00
     20.000     8.4752    30.8920    9.99313  104.93472    23.9875 1.9129e+00     20.004     0.5923 0.0000e+00
     19.000     8.5185    30.8509    9.99311  104.93333    23.9505 2.0732e+00     19.094     0.5689 0.0000e+00
     18.000     8.5735    30.7970   10.00959  105.11097    23.9021 2.2658e+00     18.118     0.5506 0.0000e+00
     17.000     8.6312    30.7325   10.00721  105.09284    23.8432 2.5205e+00     17.187     0.5332 0.0000e+00
     16.000     8.7189    30.6637   10.02056  105.25318    23.7812 2.9498e+00     16.263     0.5154 0.0000e+00
     15.000     8.8244    30.5522   10.03108  105.37812    23.6787 3.6184e+00     15.122     0.5704 0.0000e+00
     14.000     8.9046    30.4619   10.04102  105.48784    23.5932 4.3811e+00     14.081     0.6313 0.0000e+00
     13.000     8.9216    30.4239   10.05993  105.68765    23.5545 5.5016e+00     13.282     0.7097 0.0000e+00
     12.000     8.9289    30.3953   10.14627  106.60036    23.5257 7.3478e+00     12.085     0.7311 0.0000e+00
     11.000     8.9288    30.3955   10.17742  106.92643    23.5258 1.0133e+01     11.001     0.7372 0.0000e+00
     10.000     8.9311    30.3956   10.22122  107.39207    23.5258 1.3575e+01     10.146     0.7191 0.0000e+00
      9.000     8.9370    30.3953   10.78641  108.44258    23.5252 1.8635e+01      9.087     0.7218 0.0000e+00
      8.000     8.9458    30.3956   10.35885  107.68144    23.5246 2.6577e+01      8.166     0.7590 0.0000e+00
      7.000     8.9506    30.3915    9.86223  103.59953    23.5192 3.7361e+01      6.841     0.7439 0.0000e+00
      6.000     8.9509    30.3914   11.28631  103.39984    23.5193 5.1160e+01      6.183     0.7465 0.0000e+00
      5.000     8.9525    30.3912 -9.990e-29 -9.990e-29    23.5189 7.2262e+01      5.221     0.7672 0.0000e+00
      4.000     8.9532    30.3916 -9.990e-29 -9.990e-29    23.5191 1.0252e+02      4.271     0.7990 0.0000e+00
      3.000     8.9533    30.3909 -9.990e-29 -9.990e-29    23.5184 1.4608e+02      3.355     0.7876 0.0000e+00
      2.000     8.9581    30.3914 -9.990e-29 -9.990e-29    23.5187 1.9720e+02      2.534     0.7803 0.0000e+00
      1.000     8.9616    30.3926 -9.990e-29 -9.990e-29    23.5190 4.6353e+02      1.858     0.6608 0.0000e+00
