* Sea-Bird SBE19plus Data File:
* FileName = C:\data\otf\2007\ctd-07004.hex
* Software Version 1.55
* Temperature SN =  5061
* Conductivity SN =  5061
* System UpLoad Time = Aug 15 2007 15:33:19
* ds
* SeacatPlus V 1.6a  SERIAL NO. 5061    15 Aug 2007  15:31:53
* vbatt = 10.9, vlith =  8.7, ioper =  61.6 ma, ipump =  57.5 ma, 
* iext01 =  95.2 ma
* iext23 =  58.1 ma
* 
* status = not logging
* number of scans to average = 1
* samples = 153039, free = 288466, casts = 154
* mode = profile, minimum cond freq = 3000, pump delay = 60 sec
* autorun = no, ignore magnetic switch = no
* battery type = alkaline, battery cutoff =  7.3 volts
* pressure sensor = strain gauge, range = 870.0
* SBE 38 = no, Gas Tension Device = no
* Ext Volt 0 = yes, Ext Volt 1 = yes, Ext Volt 2 = yes, Ext Volt 3 = yes
* echo commands = yes
* output format = raw HEX
* S>
* 
* SeacatPlus V 1.6a  SERIAL NO. 5061    15 Aug 2007  15:32:18
* temperature:  05-oct-06
*     TA0 = 1.254184e-03
*     TA1 = 2.596730e-04
*     TA2 = 5.165612e-07
*     TA3 = 1.318931e-07
*     TOFFSET = 0.000000e+00
* conductivity:  05-oct-06
*     G = -9.978144e-01
*     H = 1.555200e-01
*     I = -4.839108e-04
*     J = 6.121100e-05
*     CF0 = 2.539936e+03
*     CPCOR = -9.570000e-08
*     CTCOR = 3.250000e-06
*     CSLOPE = 1.000000e+00
* pressure S/N = 2362539, range = 870 psia:  24-aug-06
*     PA0 = 2.171091e-01
*     PA1 = 2.647085e-03
*     PA2 = 1.419397e-11
*     PTCA0 = 5.242437e+05
*     PTCA1 = 7.545345e+00
*     PTCA2 = -1.835354e-01
*     PTCB0 = 2.537125e+01
*     PTCB1 = -1.750000e-03
*     PTCB2 = 0.000000e+00
*     PTEMPA0 = -5.753989e+01
*     PTEMPA1 = 5.235813e+01
*     PTEMPA2 = -4.015521e-02
*     POFFSET = 0.000000e+00
* volt 0: offset = -4.682842e-02, slope = 1.249147e+00
* volt 1: offset = -4.695158e-02, slope = 1.248145e+00
* volt 2: offset = -4.685263e-02, slope = 1.248783e+00
* volt 3: offset = -4.690316e-02, slope = 1.249508e+00
*     EXTFREQSF = 1.000002e+00
* dh
* cast   4 03 Jul 2007 08:51:14 samples 1008 to 2827, avg = 1, stop = mag switch
* S> 
# nquan = 10
# nvalues = 81                          
# units = specified
# name 0 = depSM: Depth [salt water, m]
# name 1 = tv290C: Temperature [ITS-90, deg C]
# name 2 = sal00: Salinity [PSU]
# name 3 = sbeox0Mg/L: Oxygen, SBE 43 [mg/l]
# name 4 = sbeox0PS: Oxygen, SBE 43 [% saturation]
# name 5 = sigma-t00: Density [sigma-t, Kg/m^3 ]
# name 6 = par: PAR/Irradiance, Biospherical/Licor
# name 7 = prdM: Pressure, Strain Gauge [db]
# name 8 = flECO-AFL: Fluorescence, Wetlab ECO-AFL/FL [mg/m^3]
# name 9 = flag: flag
# span 0 =      3.000,     44.000       
# span 1 =     7.4545,     7.5106       
# span 2 =    29.3565,    31.8696       
# span 3 =    7.76051,   10.05222       
# span 4 =   79.62413,  103.07179       
# span 5 =    22.9149,    24.8864       
# span 6 = 2.5856e+00, 3.0411e+02       
# span 7 =      3.049,     44.067       
# span 8 =     0.7274,     1.2098       
# span 9 = 0.0000e+00, 0.0000e+00       
# interval = meters: 1                  
# start_time = Jul 03 2007 08:51:14
# bad_flag = -9.990e-29
# sensor 0 = Frequency 0  temperature, 5061, 05-Oct-06
# sensor 1 = Frequency 1  conductivity, 5061, 05-Oct-06, cpcor = -9.5700e-08
# sensor 2 = Pressure Number
# sensor 3 = Extrnl Volt  0  irradiance (PAR), primary, 4751, 08/10/06
# sensor 4 = Extrnl Volt  1  Oxygen, SBE, primary, 1081, 10/24/06
# sensor 5 = Extrnl Volt  2  WET Labs, ECO_AFL
# sensor 6 = Extrnl Volt  3  userpoly 0, 0627, 10/11/06
# datcnv_date = Oct 15 2007 14:49:41, 5.37e
# datcnv_in = I:\bob d\OTF_GEM\2007\ctd-07004.hex I:\Willette\OTF\CTD\5061.con
# datcnv_skipover = 0
# filter_date = Oct 15 2007 15:02:16, 5.37e
# filter_in = I:\Willette\OTF\CTD\2007\CTD Data\ctd-07004.cnv
# filter_low_pass_tc_A = 1.000
# filter_low_pass_tc_B = 0.150
# filter_low_pass_A_vars = prdM
# filter_low_pass_B_vars =
# loopedit_date = Oct 15 2007 15:06:41, 5.37e
# loopedit_in = I:\Willette\OTF\CTD\2007\CTD Data\ctd-07004.cnv
# loopedit_minVelocity = 0.250                                                                                            
# loopedit_surfaceSoak: minDepth = 5.0, maxDepth = 20, useDeckPress = 1                                                   
# loopedit_excl_bad_scans = yes
# alignctd_date = Oct 15 2007 15:14:10, 5.37e
# alignctd_in = I:\Willette\OTF\CTD\2007\CTD Data\ctd-07004.cnv
# alignctd_adv = tv290C 0.500, sbeox0Mg/L 4.000, sbeox0PS 4.000                                                                                                                                                                      
# binavg_date = Oct 15 2007 15:18:39, 5.37e
# binavg_in = I:\Willette\OTF\CTD\2007\CTD Data\ctd-07004.cnv
# binavg_bintype = meters
# binavg_binsize = 1
# binavg_excl_bad_scans = yes
# binavg_skipover = 0
# binavg_surface_bin = no, min = 0.000, max = 0.000, value = 0.000
# file_type = ascii
*END*
      5.000     7.5088    31.8643    8.19017   84.02994    24.8806 1.1368e+02      5.081     0.9404 0.0000e+00
      6.000     7.5012    31.8633    8.04003   82.47345    24.8809 9.9139e+01      6.107     0.8724 0.0000e+00
      7.000     7.4997    31.8696    7.96758   81.72895    24.8864 8.7829e+01      7.056     0.8248 0.0000e+00
      8.000     7.4961    31.8602    7.92641   81.30902    24.8792 8.0488e+01      8.095     0.8283 0.0000e+00
      9.000     7.4932    31.8652    7.97173   81.76640    24.8838 7.2858e+01      9.087     0.9405 0.0000e+00
     10.000     7.4925    31.8629    8.15242   83.62836    24.8822 6.5892e+01     10.090     0.9453 0.0000e+00
     11.000     7.4938    31.8606    7.94217   81.47045    24.8800 5.8985e+01     11.121     0.9067 0.0000e+00
     12.000     7.4926    31.8651    8.06487   82.73107    24.8839 5.2387e+01     12.085     0.8541 0.0000e+00
     13.000     7.4952    31.8572    8.05544   82.64274    24.8772 4.6246e+01     13.135     0.8800 0.0000e+00
     14.000     7.4952    31.8620    7.99400   82.01472    24.8810 4.0685e+01     14.129     0.8877 0.0000e+00
     15.000     7.5028    31.8576    7.95859   81.64770    24.8767 3.5540e+01     15.177     0.8669 0.0000e+00
     16.000     7.4976    31.8643    7.97106   81.77296    24.8825 3.1158e+01     16.129     0.8779 0.0000e+00
     17.000     7.5022    31.8618    7.92260   81.27260    24.8800 2.6456e+01     17.159     0.8324 0.0000e+00
     18.000     7.4989    31.8626    7.82817   80.29756    24.8810 2.4049e+01     18.169     0.7573 0.0000e+00
     19.000     7.4956    31.8587    7.76051   79.62413    24.8782 2.1819e+01     19.158     0.7949 0.0000e+00
     20.000     7.4947    31.8644    7.78070   79.82938    24.8829 1.9638e+01     20.207     0.7754 0.0000e+00
     21.000     7.5007    31.8647    7.77680   79.75300    24.8833 1.7412e+01     21.179     0.9246 0.0000e+00
     22.000     7.5106    31.8436    8.23320   84.40126    24.8640 1.5482e+01     22.236     0.8309 0.0000e+00
     23.000     7.4929    31.8434    8.86433   90.84978    24.8659 1.3985e+01     23.211     0.8057 0.0000e+00
     24.000     7.4777    31.8338    9.17794   94.06264    24.8608 1.2600e+01     24.226     0.7853 0.0000e+00
     25.000     7.4639    31.8364    9.35656   95.89097    24.8647 1.1364e+01     25.248     0.8786 0.0000e+00
     26.000     7.4629    31.8395    9.46017   96.95352    24.8678 1.0245e+01     26.236     0.7388 0.0000e+00
     27.000     7.4609    31.8397    9.54721   97.84420    24.8681 9.2339e+00     27.286     0.8203 0.0000e+00
     28.000     7.4618    31.8400    9.60008   98.38620    24.8683 8.2957e+00     28.249     0.8225 0.0000e+00
     29.000     7.4611    31.8398    9.65447   98.94273    24.8683 7.4621e+00     29.268     0.7378 0.0000e+00
     30.000     7.4609    31.8401    9.69675   99.36220    24.8685 6.7686e+00     30.285     0.7275 0.0000e+00
     31.000     7.4616    31.8401    9.72518   99.65473    24.8684 6.1789e+00     31.280     0.7779 0.0000e+00
     32.000     7.4550    31.8382    9.76191  100.03068    24.8676 5.6633e+00     32.324     0.8823 0.0000e+00
     33.000     7.4549    31.8406    9.79409  100.36046    24.8698 5.1904e+00     33.295     0.8446 0.0000e+00
     34.000     7.4547    31.8403    9.82040  100.63211    24.8695 4.7599e+00     34.328     0.8876 0.0000e+00
     35.000     7.4549    31.8405    9.84911  100.92765    24.8697 4.3886e+00     35.329     0.8274 0.0000e+00
     36.000     7.4556    31.8406    9.87040  101.14894    24.8696 4.0613e+00     36.345     0.7993 0.0000e+00
     37.000     7.4560    31.8404    9.88956  101.34455    24.8694 3.7775e+00     37.348     0.7620 0.0000e+00
     38.000     7.4578    31.8406    9.90176  101.46766    24.8694 3.5229e+00     38.369     0.8124 0.0000e+00
     39.000     7.4575    31.8398    9.92113  101.66632    24.8687 3.3071e+00     39.390     0.8352 0.0000e+00
     40.000     7.4566    31.8400    9.93380  101.79541    24.8690 3.1161e+00     40.388     0.8366 0.0000e+00
     41.000     7.4566    31.8401    9.95840  102.04600    24.8691 2.9409e+00     41.386     0.9383 0.0000e+00
     42.000     7.4565    31.8401    9.96702  102.13292    24.8691 2.7839e+00     42.335     0.8559 0.0000e+00
     43.000     7.4558    31.8401    9.98235  102.28984    24.8691 2.6536e+00     43.323     0.9351 0.0000e+00
     44.000     7.4545    31.8407   10.00513  102.52293    24.8698 2.5856e+00     44.067     0.9093 0.0000e+00
     43.000     7.4558    31.8399    9.96943  102.16045    24.8691 2.6834e+00     43.336     0.8106 0.0000e+00
     42.000     7.4561    31.8403    9.99009  102.37344    24.8693 2.8063e+00     42.359     0.7657 0.0000e+00
     41.000     7.4566    31.8403    9.99511  102.42463    24.8693 2.9486e+00     41.373     0.7595 0.0000e+00
     40.000     7.4568    31.8401   10.00022  102.47811    24.8691 3.1228e+00     40.393     0.7432 0.0000e+00
     39.000     7.4568    31.8403    9.99116  102.38536    24.8692 3.3205e+00     39.371     0.7788 0.0000e+00
     38.000     7.4573    31.8402    9.99161  102.38630    24.8691 3.5431e+00     38.347     0.8706 0.0000e+00
     37.000     7.4572    31.8400   10.00108  102.48795    24.8690 3.8106e+00     37.382     0.8889 0.0000e+00
     36.000     7.4558    31.8400   10.01095  102.59228    24.8691 4.1310e+00     36.328     0.9661 0.0000e+00
     35.000     7.4584    31.8405   10.01058  102.58750    24.8692 4.4746e+00     35.320     0.8730 0.0000e+00
     34.000     7.4590    31.8399   10.00158  102.49495    24.8686 4.8549e+00     34.335     0.8623 0.0000e+00
     33.000     7.4586    31.8396    9.99142  102.39369    24.8684 5.2976e+00     33.329     0.8357 0.0000e+00
     32.000     7.4588    31.8400   10.00864  102.57275    24.8687 5.8063e+00     32.303     0.7671 0.0000e+00
     31.000     7.4602    31.8401   10.01635  102.65378    24.8687 6.3824e+00     31.289     0.7995 0.0000e+00
     30.000     7.4611    31.8396   10.02697  102.76325    24.8681 7.0242e+00     30.298     0.7581 0.0000e+00
     29.000     7.4619    31.8398   10.02852  102.78297    24.8682 7.7520e+00     29.256     0.8190 0.0000e+00
     28.000     7.4621    31.8397   10.03173  102.81923    24.8681 8.5764e+00     28.277     0.7657 0.0000e+00
     27.000     7.4641    31.8397   10.02700  102.77657    24.8679 9.5391e+00     27.255     0.7274 0.0000e+00
     26.000     7.4654    31.8390   10.02513  102.76221    24.8670 1.0619e+01     26.232     0.7927 0.0000e+00
     25.000     7.4680    31.8392   10.03448  102.87035    24.8669 1.1863e+01     25.250     0.7965 0.0000e+00
     24.000     7.4708    31.8396   10.03347  102.87050    24.8670 1.3325e+01     24.221     0.8765 0.0000e+00
     23.000     7.4760    31.8389   10.03252  102.86484    24.8657 1.4995e+01     23.207     0.8429 0.0000e+00
     22.000     7.4801    31.8381   10.03528  102.89587    24.8645 1.7007e+01     22.209     0.8394 0.0000e+00
     21.000     7.4813    31.8381   10.04774  103.02591    24.8642 1.9357e+01     21.214     0.9156 0.0000e+00
     20.000     7.4827    31.8376   10.05222  103.07179    24.8636 2.2034e+01     20.178     0.8294 0.0000e+00
     19.000     7.4835    31.8377   10.05112  103.06002    24.8635 2.4707e+01     19.181     0.8844 0.0000e+00
     18.000     7.4835    31.8374   10.04896  103.03860    24.8633 2.7635e+01     18.180     0.8597 0.0000e+00
     17.000     7.4832    31.8371   10.03107  102.85618    24.8631 3.0838e+01     17.155     0.8566 0.0000e+00
     16.000     7.4837    31.8375   10.01052  102.64518    24.8634 3.6008e+01     16.145     0.9289 0.0000e+00
     15.000     7.4839    31.8372    9.98816  102.41906    24.8631 4.0229e+01     15.161     0.7762 0.0000e+00
     14.000     7.4839    31.8372    9.96277  102.16160    24.8631 4.5963e+01     14.116     0.9542 0.0000e+00
     13.000     7.4855    31.8374    9.92935  101.82035    24.8631 5.3356e+01     13.132     0.8458 0.0000e+00
     12.000     7.4865    31.8375    9.86354  101.14482    24.8629 6.1788e+01     12.118     1.2098 0.0000e+00
     11.000     7.4872    31.8371    9.85369  101.04298    24.8626 7.1763e+01     11.194     0.8075 0.0000e+00
     10.000     7.4869    31.8360    9.82506  100.74966    24.8617 8.5967e+01     10.133     0.9315 0.0000e+00
      9.000     7.4869    31.8361    9.65052   97.59985    24.8619 1.0695e+02      8.987     0.9039 0.0000e+00
      8.000     7.4871    31.8356    9.48721   96.54473    24.8614 1.3046e+02      8.048     0.8587 0.0000e+00
      7.000     7.4865    29.9697    9.49828   95.35944    23.3959 1.5844e+02      7.067     0.9973 0.0000e+00
      6.000     7.4852    30.0959    9.16294   93.34081    23.4952 1.8348e+02      6.066     1.0146 0.0000e+00
      5.000     7.4848    29.3565    9.07940   93.01256    22.9149 2.4036e+02      5.098     0.8956 0.0000e+00
      4.000     7.4848    31.7834    9.07059   93.01533    24.8207 2.9759e+02      4.053     0.9219 0.0000e+00
      3.000     7.4862    31.8336    9.16282   93.95567    24.8599 3.0411e+02      3.049     0.7994 0.0000e+00
