* Sea-Bird SBE19plus Data File:
* FileName = C:\data\otf\2007\ctd-07144.hex
* Software Version 1.55
* Temperature SN =  5061
* Conductivity SN =  5061
* System UpLoad Time = Aug 15 2007 17:37:11
* ds
* SeacatPlus V 1.6a  SERIAL NO. 5061    15 Aug 2007  15:31:53
* vbatt = 10.9, vlith =  8.7, ioper =  61.6 ma, ipump =  57.5 ma, 
* iext01 =  95.2 ma
* iext23 =  58.1 ma
* 
* status = not logging
* number of scans to average = 1
* samples = 153039, free = 288466, casts = 154
* mode = profile, minimum cond freq = 3000, pump delay = 60 sec
* autorun = no, ignore magnetic switch = no
* battery type = alkaline, battery cutoff =  7.3 volts
* pressure sensor = strain gauge, range = 870.0
* SBE 38 = no, Gas Tension Device = no
* Ext Volt 0 = yes, Ext Volt 1 = yes, Ext Volt 2 = yes, Ext Volt 3 = yes
* echo commands = yes
* output format = raw HEX
* S>
* 
* SeacatPlus V 1.6a  SERIAL NO. 5061    15 Aug 2007  15:32:18
* temperature:  05-oct-06
*     TA0 = 1.254184e-03
*     TA1 = 2.596730e-04
*     TA2 = 5.165612e-07
*     TA3 = 1.318931e-07
*     TOFFSET = 0.000000e+00
* conductivity:  05-oct-06
*     G = -9.978144e-01
*     H = 1.555200e-01
*     I = -4.839108e-04
*     J = 6.121100e-05
*     CF0 = 2.539936e+03
*     CPCOR = -9.570000e-08
*     CTCOR = 3.250000e-06
*     CSLOPE = 1.000000e+00
* pressure S/N = 2362539, range = 870 psia:  24-aug-06
*     PA0 = 2.171091e-01
*     PA1 = 2.647085e-03
*     PA2 = 1.419397e-11
*     PTCA0 = 5.242437e+05
*     PTCA1 = 7.545345e+00
*     PTCA2 = -1.835354e-01
*     PTCB0 = 2.537125e+01
*     PTCB1 = -1.750000e-03
*     PTCB2 = 0.000000e+00
*     PTEMPA0 = -5.753989e+01
*     PTEMPA1 = 5.235813e+01
*     PTEMPA2 = -4.015521e-02
*     POFFSET = 0.000000e+00
* volt 0: offset = -4.682842e-02, slope = 1.249147e+00
* volt 1: offset = -4.695158e-02, slope = 1.248145e+00
* volt 2: offset = -4.685263e-02, slope = 1.248783e+00
* volt 3: offset = -4.690316e-02, slope = 1.249508e+00
*     EXTFREQSF = 1.000002e+00
* dh
* cast 144 28 Jul 2007 13:33:25 samples 141253 to 142365, avg = 1, stop = mag switch
* S> 
# nquan = 10
# nvalues = 151                         
# units = specified
# name 0 = depSM: Depth [salt water, m]
# name 1 = tv290C: Temperature [ITS-90, deg C]
# name 2 = sal00: Salinity [PSU]
# name 3 = sbeox0Mg/L: Oxygen, SBE 43 [mg/l]
# name 4 = sbeox0PS: Oxygen, SBE 43 [% saturation]
# name 5 = sigma-t00: Density [sigma-t, Kg/m^3 ]
# name 6 = par: PAR/Irradiance, Biospherical/Licor
# name 7 = prdM: Pressure, Strain Gauge [db]
# name 8 = flECO-AFL: Fluorescence, Wetlab ECO-AFL/FL [mg/m^3]
# name 9 = flag: flag
# span 0 =      1.000,     78.000       
# span 1 =     8.4299,     9.5707       
# span 2 =    31.1310,    31.6321       
# span 3 =    8.40499,    9.36997       
# span 4 =   88.62005,   99.91293       
# span 5 =    24.0366,    24.5677       
# span 6 = 1.5443e+00, 5.4843e+02       
# span 7 =      1.069,     78.521       
# span 8 =     0.5312,     1.0871       
# span 9 = 0.0000e+00, 0.0000e+00       
# interval = meters: 1                  
# start_time = Jul 28 2007 13:33:25
# bad_flag = -9.990e-29
# sensor 0 = Frequency 0  temperature, 5061, 05-Oct-06
# sensor 1 = Frequency 1  conductivity, 5061, 05-Oct-06, cpcor = -9.5700e-08
# sensor 2 = Pressure Number
# sensor 3 = Extrnl Volt  0  irradiance (PAR), primary, 4751, 08/10/06
# sensor 4 = Extrnl Volt  1  Oxygen, SBE, primary, 1081, 10/24/06
# sensor 5 = Extrnl Volt  2  WET Labs, ECO_AFL
# sensor 6 = Extrnl Volt  3  userpoly 0, 0627, 10/11/06
# datcnv_date = Oct 15 2007 14:49:53, 5.37e
# datcnv_in = I:\bob d\OTF_GEM\2007\ctd-07144.hex I:\Willette\OTF\CTD\5061.con
# datcnv_skipover = 0
# filter_date = Oct 15 2007 15:02:43, 5.37e
# filter_in = I:\Willette\OTF\CTD\2007\CTD Data\ctd-07144.cnv
# filter_low_pass_tc_A = 1.000
# filter_low_pass_tc_B = 0.150
# filter_low_pass_A_vars = prdM
# filter_low_pass_B_vars =
# loopedit_date = Oct 15 2007 15:07:00, 5.37e
# loopedit_in = I:\Willette\OTF\CTD\2007\CTD Data\ctd-07144.cnv
# loopedit_minVelocity = 0.250                                                                                            
# loopedit_surfaceSoak: minDepth = 5.0, maxDepth = 20, useDeckPress = 1                                                   
# loopedit_excl_bad_scans = yes
# alignctd_date = Oct 15 2007 15:14:25, 5.37e
# alignctd_in = I:\Willette\OTF\CTD\2007\CTD Data\ctd-07144.cnv
# alignctd_adv = tv290C 0.500, sbeox0Mg/L 4.000, sbeox0PS 4.000                                                                                                                                                                      
# binavg_date = Oct 15 2007 15:18:53, 5.37e
# binavg_in = I:\Willette\OTF\CTD\2007\CTD Data\ctd-07144.cnv
# binavg_bintype = meters
# binavg_binsize = 1
# binavg_excl_bad_scans = yes
# binavg_skipover = 0
# binavg_surface_bin = no, min = 0.000, max = 0.000, value = 0.000
# file_type = ascii
*END*
      5.000     8.9581    31.3983    8.40499   88.62005    24.2987 5.4843e+02      5.152     0.6256 0.0000e+00
      6.000     8.8751    31.4060    8.50742   89.63554    24.3186 4.5928e+02      6.139     0.6409 0.0000e+00
      7.000     8.8361    31.4252    8.57060   90.20316    24.3428 3.9892e+02      7.151     0.6414 0.0000e+00
      8.000     8.8216    31.4243    8.59867   90.46020    24.3457 3.2901e+02      8.132     0.6606 0.0000e+00
      9.000     8.8164    31.4179    8.64782   90.96456    24.3419 2.7623e+02      9.120     0.6943 0.0000e+00
     10.000     8.7834    31.4141    8.68622   91.32442    24.3408 2.2909e+02     10.084     0.6986 0.0000e+00
     11.000     8.7268    31.4426    8.72788   91.71266    24.3704 1.9261e+02     11.144     0.7395 0.0000e+00
     12.000     8.7046    31.4648    8.76866   92.12716    24.3946 1.6236e+02     12.133     0.7558 0.0000e+00
     13.000     8.6979    31.4753    8.78498   92.28427    24.4042 1.3234e+02     13.076     0.8006 0.0000e+00
     14.000     8.6756    31.4862    8.78207   92.23189    24.4150 1.1015e+02     14.259     0.8612 0.0000e+00
     15.000     8.6540    31.4796    8.80704   92.48896    24.4130 9.3579e+01     15.245     0.8849 0.0000e+00
     16.000     8.6426    31.4825    8.82475   92.67581    24.4176 7.8768e+01     16.088     0.9117 0.0000e+00
     17.000     8.6336    31.5074    8.83396   92.76720    24.4392 6.4391e+01     17.180     0.9393 0.0000e+00
     18.000     8.6260    31.5034    8.83662   92.78645    24.4370 5.3806e+01     18.265     0.9357 0.0000e+00
     19.000     8.6206    31.4999    8.84978   92.92401    24.4353 4.5419e+01     19.159     0.8905 0.0000e+00
     20.000     8.6164    31.5090    8.87063   93.14603    24.4432 3.7589e+01     20.092     0.8593 0.0000e+00
     21.000     8.6172    31.5144    8.87548   93.20017    24.4478 3.0874e+01     21.196     0.8517 0.0000e+00
     22.000     8.6136    31.5112    8.88205   93.26614    24.4454 2.6030e+01     22.246     0.8513 0.0000e+00
     23.000     8.6109    31.5092    8.88581   93.30662    24.4443 2.2049e+01     23.197     0.8340 0.0000e+00
     24.000     8.6104    31.5120    8.87246   93.16495    24.4469 1.8564e+01     24.149     0.8357 0.0000e+00
     25.000     8.6129    31.5151    8.85728   93.00660    24.4492 1.5575e+01     25.188     0.8434 0.0000e+00
     26.000     8.6134    31.5119    8.85444   92.97559    24.4463 1.3159e+01     26.231     0.8659 0.0000e+00
     27.000     8.6118    31.5121    8.86540   93.08043    24.4466 1.1207e+01     27.213     0.8411 0.0000e+00
     28.000     8.6119    31.5140    8.90093   93.45320    24.4481 9.5034e+00     28.245     0.8457 0.0000e+00
     29.000     8.6114    31.5141    8.91039   93.56035    24.4484 8.1329e+00     29.275     0.8402 0.0000e+00
     30.000     8.6120    31.5126    8.88011   93.23887    24.4470 7.0140e+00     30.344     0.8162 0.0000e+00
     31.000     8.6081    31.5077    8.87851   93.21604    24.4434 6.1309e+00     31.311     0.8136 0.0000e+00
     32.000     8.6063    31.5090    8.89139   93.34443    24.4449 5.3709e+00     32.190     0.8257 0.0000e+00
     33.000     8.6095    31.5171    8.91257   93.55095    24.4513 4.6632e+00     33.240     0.8443 0.0000e+00
     34.000     8.6092    31.5108    8.92910   93.71811    24.4459 4.1244e+00     34.340     0.8466 0.0000e+00
     35.000     8.6043    31.5121    8.90752   93.47912    24.4474 3.6936e+00     35.332     0.8394 0.0000e+00
     36.000     8.5970    31.5192    8.89785   93.33517    24.4539 3.3468e+00     36.351     0.8928 0.0000e+00
     37.000     8.5884    31.5236    8.95934   93.95580    24.4586 3.0795e+00     37.329     0.8302 0.0000e+00
     38.000     8.5856    31.5331    9.03341   94.71226    24.4669 2.7754e+00     38.355     0.8203 0.0000e+00
     39.000     8.5711    31.5331    9.08884   95.28621    24.4677 2.5634e+00     39.441     0.8137 0.0000e+00
     40.000     8.5542    31.5325    9.12227   95.63231    24.4699 2.3944e+00     40.399     0.7971 0.0000e+00
     41.000     8.5409    31.5422    9.14354   95.84934    24.4796 2.2447e+00     41.330     0.7831 0.0000e+00
     42.000     8.5313    31.5555    9.16091   96.02225    24.4923 2.1144e+00     42.439     0.7874 0.0000e+00
     43.000     8.5284    31.5583    9.17224   96.12771    24.4950 2.0161e+00     43.425     0.7982 0.0000e+00
     44.000     8.5259    31.5602    9.18105   96.21405    24.4969 1.9300e+00     44.391     0.7930 0.0000e+00
     45.000     8.5219    31.5629    9.19083   96.27080    24.4996 1.8592e+00     45.486     0.7690 0.0000e+00
     46.000     8.5169    31.5653    9.19690   96.32027    24.5020 1.8048e+00     46.465     0.7765 0.0000e+00
     47.000     8.5092    31.5702    9.20291   96.36963    24.5067 1.7567e+00     47.469     0.8280 0.0000e+00
     48.000     8.5066    31.5751    9.20615   96.40939    24.5116 1.7189e+00     48.487     0.7995 0.0000e+00
     49.000     8.4827    31.5767    9.21295   96.49599    24.5135 1.6877e+00     49.445     0.7934 0.0000e+00
     50.000     8.4728    31.6008    9.21686   96.52194    24.5366 1.6604e+00     50.385     0.8063 0.0000e+00
     51.000     8.4646    31.6025    9.22260   96.58306    24.5385 1.6348e+00     51.463     0.8303 0.0000e+00
     52.000     8.4671    31.6081    9.22754   96.61455    24.5439 1.6165e+00     52.487     0.8540 0.0000e+00
     53.000     8.4749    31.5998    9.23392   96.67522    24.5358 1.6015e+00     53.515     0.8190 0.0000e+00
     54.000     8.4677    31.6035    9.23945   96.73484    24.5395 1.5900e+00     54.537     0.7935 0.0000e+00
     55.000     8.4661    31.6032    9.24139   96.75634    24.5392 1.5806e+00     55.465     0.8131 0.0000e+00
     56.000     8.4551    31.6108    9.24614   96.80711    24.5467 1.5724e+00     56.552     0.8187 0.0000e+00
     57.000     8.4530    31.6146    9.24759   96.80575    24.5504 1.5665e+00     57.564     0.8415 0.0000e+00
     58.000     8.4541    31.6150    9.24849   96.80452    24.5508 1.5622e+00     58.498     0.8426 0.0000e+00
     59.000     8.4554    31.6140    9.25154   96.82832    24.5498 1.5585e+00     59.574     0.8277 0.0000e+00
     60.000     8.4528    31.6128    9.25678   96.87878    24.5488 1.5556e+00     60.602     0.8191 0.0000e+00
     61.000     8.4421    31.6184    9.26027   96.91095    24.5543 1.5535e+00     61.562     0.8330 0.0000e+00
     62.000     8.4377    31.6251    9.26097   96.91785    24.5607 1.5515e+00     62.570     0.8465 0.0000e+00
     63.000     8.4342    31.6275    9.25641   96.86951    24.5632 1.5496e+00     63.603     0.8470 0.0000e+00
     64.000     8.4318    31.6295    9.26296   96.94013    24.5651 1.5488e+00     64.537     0.8609 0.0000e+00
     65.000     8.4303    31.6319    9.27266   97.04547    24.5674 1.5474e+00     65.661     0.8501 0.0000e+00
     66.000     8.4299    31.6317    9.27311   97.05356    24.5673 1.5466e+00     66.627     0.8393 0.0000e+00
     67.000     8.4306    31.6321    9.27331   97.05917    24.5677 1.5461e+00     67.630     0.8489 0.0000e+00
     68.000     8.4328    31.6307    9.26979   97.02057    24.5662 1.5458e+00     68.640     0.8517 0.0000e+00
     69.000     8.4349    31.6293    9.26527   96.96487    24.5648 1.5456e+00     69.734     0.9605 0.0000e+00
     70.000     8.4364    31.6281    9.26867   96.99943    24.5637 1.5457e+00     70.631     1.0036 0.0000e+00
     71.000     8.4370    31.6265    9.27291   97.04421    24.5621 1.5450e+00     71.624     1.0168 0.0000e+00
     72.000     8.4315    31.6293    9.27371   97.05252    24.5649 1.5452e+00     72.714     1.0343 0.0000e+00
     73.000     8.4309    31.6309    9.26950   97.00880    24.5666 1.5451e+00     73.657     1.0871 0.0000e+00
     74.000     8.4309    31.6317    9.26891   97.00755    24.5672 1.5451e+00     74.715     1.0679 0.0000e+00
     75.000     8.4307    31.6318    9.27036   97.02400    24.5673 1.5451e+00     75.725     1.0404 0.0000e+00
     76.000     8.4311    31.6321    9.27238   97.04663    24.5676 1.5447e+00     76.726     1.0437 0.0000e+00
     77.000     8.4336    31.6308    9.27484   97.07184    24.5662 1.5448e+00     77.592     1.0427 0.0000e+00
     78.000     8.4355    31.6286    9.26812   97.00173    24.5641 1.5443e+00     78.521     1.0474 0.0000e+00
     77.000     8.4371    31.6292    9.28824   97.20867    24.5642 1.5449e+00     77.623     1.0154 0.0000e+00
     76.000     8.4347    31.6303    9.28224   97.14583    24.5655 1.5445e+00     76.732     0.9862 0.0000e+00
     75.000     8.4330    31.6310    9.27786   97.09998    24.5662 1.5445e+00     75.725     0.9798 0.0000e+00
     74.000     8.4327    31.6317    9.27541   97.07600    24.5669 1.5444e+00     74.697     0.9855 0.0000e+00
     73.000     8.4329    31.6310    9.27784   97.10390    24.5664 1.5450e+00     73.695     1.0168 0.0000e+00
     72.000     8.4336    31.6314    9.28769   97.21048    24.5666 1.5449e+00     72.717     1.0070 0.0000e+00
     71.000     8.4354    31.6294    9.29028   97.23672    24.5649 1.5454e+00     71.705     0.9841 0.0000e+00
     70.000     8.4377    31.6263    9.28830   97.22148    24.5619 1.5456e+00     70.621     0.9781 0.0000e+00
     69.000     8.4369    31.6273    9.28548   97.18945    24.5628 1.5454e+00     69.742     0.9644 0.0000e+00
     68.000     8.4404    31.6259    9.28942   97.22406    24.5615 1.5452e+00     68.672     0.9798 0.0000e+00
     67.000     8.4384    31.6263    9.29376   97.26766    24.5619 1.5460e+00     67.731     0.9285 0.0000e+00
     66.000     8.4333    31.6292    9.29246   97.26133    24.5648 1.5461e+00     66.427     0.9316 0.0000e+00
     65.000     8.4357    31.6289    9.29527   97.29302    24.5644 1.5467e+00     65.613     0.9424 0.0000e+00
     64.000     8.4370    31.6270    9.30497   97.39935    24.5627 1.5477e+00     64.599     0.9554 0.0000e+00
     63.000     8.4390    31.6259    9.30649   97.41219    24.5615 1.5485e+00     63.603     0.9140 0.0000e+00
     62.000     8.4415    31.6241    9.30413   97.38799    24.5598 1.5491e+00     62.635     0.9352 0.0000e+00
     61.000     8.4411    31.6225    9.29770   97.32188    24.5584 1.5505e+00     61.572     0.8943 0.0000e+00
     60.000     8.4412    31.6237    9.29429   97.29135    24.5594 1.5523e+00     60.596     0.8803 0.0000e+00
     59.000     8.4411    31.6230    9.29669   97.31829    24.5589 1.5548e+00     59.572     0.8853 0.0000e+00
     58.000     8.4444    31.6212    9.29960   97.34948    24.5571 1.5583e+00     58.565     0.8586 0.0000e+00
     57.000     8.4457    31.6196    9.30186   97.37700    24.5555 1.5621e+00     57.561     0.8823 0.0000e+00
     56.000     8.4461    31.6191    9.30492   97.42094    24.5551 1.5675e+00     56.481     0.8964 0.0000e+00
     55.000     8.4479    31.6180    9.30164   97.39220    24.5541 1.5735e+00     55.489     0.8621 0.0000e+00
     54.000     8.4531    31.6153    9.30362   97.42063    24.5514 1.5829e+00     54.472     0.8423 0.0000e+00
     53.000     8.4574    31.6111    9.30403   97.42983    24.5473 1.5936e+00     53.406     0.8551 0.0000e+00
     52.000     8.4590    31.6101    9.30300   97.42462    24.5463 1.6074e+00     52.551     0.8541 0.0000e+00
     51.000     8.4633    31.6064    9.30432   97.45393    24.5428 1.6263e+00     51.472     0.8545 0.0000e+00
     50.000     8.4656    31.6048    9.30301   97.45681    24.5411 1.6475e+00     50.399     0.8284 0.0000e+00
     49.000     8.4694    31.6029    9.30239   97.47160    24.5394 1.6732e+00     49.501     0.8608 0.0000e+00
     48.000     8.4776    31.5975    9.30181   97.48077    24.5341 1.7049e+00     48.436     0.8712 0.0000e+00
     47.000     8.4843    31.5931    9.29918   97.46464    24.5296 1.7436e+00     47.467     0.8394 0.0000e+00
     46.000     8.4984    31.5845    9.29924   97.47799    24.5212 1.7889e+00     46.433     0.8414 0.0000e+00
     45.000     8.5071    31.5748    9.29239   97.42681    24.5118 1.8430e+00     45.469     0.8053 0.0000e+00
     44.000     8.5146    31.5683    9.29132   97.42459    24.5056 1.9089e+00     44.452     0.8050 0.0000e+00
     43.000     8.5223    31.5639    9.29966   97.53902    24.5013 1.9878e+00     43.514     0.7918 0.0000e+00
     42.000     8.5371    31.5501    9.30933   97.67113    24.4880 2.0924e+00     42.473     0.8188 0.0000e+00
     41.000     8.5564    31.5349    9.31195   97.71421    24.4737 2.2173e+00     41.465     0.8138 0.0000e+00
     40.000     8.5830    31.5067    9.31019   97.70019    24.4472 2.3589e+00     40.376     0.8031 0.0000e+00
     39.000     8.5886    31.4985    9.31471   97.74471    24.4395 2.5228e+00     39.400     0.8204 0.0000e+00
     38.000     8.5860    31.5011    9.31438   97.73447    24.4418 2.7177e+00     38.470     0.8289 0.0000e+00
     37.000     8.5913    31.4963    9.31798   97.78914    24.4375 2.9524e+00     37.283     0.8284 0.0000e+00
     36.000     8.5938    31.4931    9.31673   97.78367    24.4346 3.2276e+00     36.333     0.8122 0.0000e+00
     35.000     8.5967    31.4897    9.31615   97.78361    24.4315 3.5307e+00     35.343     0.8323 0.0000e+00
     34.000     8.6006    31.4860    9.30717   97.69397    24.4280 3.8966e+00     34.242     0.8332 0.0000e+00
     33.000     8.6032    31.4838    9.31340   97.76023    24.4260 4.3413e+00     33.216     0.8205 0.0000e+00
     32.000     8.6043    31.4824    9.31351   97.76195    24.4246 4.8726e+00     32.183     0.8297 0.0000e+00
     31.000     8.6049    31.4817    9.31493   97.77881    24.4240 5.5277e+00     31.258     0.7960 0.0000e+00
     30.000     8.6049    31.4816    9.31180   97.74965    24.4238 6.3322e+00     30.205     0.8051 0.0000e+00
     29.000     8.6051    31.4819    9.31065   97.74211    24.4242 7.2808e+00     29.250     0.8247 0.0000e+00
     28.000     8.6062    31.4804    9.31998   97.84210    24.4227 8.4444e+00     28.249     0.8285 0.0000e+00
     27.000     8.6078    31.4794    9.32191   97.86231    24.4219 9.8398e+00     27.242     0.8405 0.0000e+00
     26.000     8.6109    31.4762    9.31708   97.80952    24.4191 1.1506e+01     26.223     0.8568 0.0000e+00
     25.000     8.6128    31.4736    9.31389   97.77511    24.4165 1.3555e+01     25.260     0.8559 0.0000e+00
     24.000     8.6134    31.4721    9.31548   97.79324    24.4152 1.5939e+01     24.275     0.8640 0.0000e+00
     23.000     8.6133    31.4712    9.31577   97.79879    24.4145 1.8880e+01     23.246     0.8731 0.0000e+00
     22.000     8.6119    31.4715    9.31085   97.75005    24.4148 2.2427e+01     22.286     0.8192 0.0000e+00
     21.000     8.6124    31.4717    9.31098   97.75765    24.4151 2.6560e+01     21.267     0.8229 0.0000e+00
     20.000     8.6148    31.4695    9.31025   97.75485    24.4130 3.1348e+01     20.206     0.8260 0.0000e+00
     19.000     8.6179    31.4676    9.31464   97.80847    24.4112 3.7589e+01     19.256     0.8393 0.0000e+00
     18.000     8.6213    31.4636    9.31902   97.86222    24.4075 4.5780e+01     18.198     0.8212 0.0000e+00
     17.000     8.6271    31.4591    9.31269   97.79632    24.4032 5.3573e+01     17.258     0.8214 0.0000e+00
     16.000     8.6333    31.4516    9.31658   97.83819    24.3961 6.3815e+01     16.234     0.8654 0.0000e+00
     15.000 -9.990e-29 -9.990e-29 -9.990e-29 -9.990e-29 -9.990e-29 -9.990e-29 -9.990e-29 -9.990e-29 -9.990e-29
     14.000     8.6523    31.4410    9.31539   97.90130    24.3852 9.2662e+01     13.868     0.8719 0.0000e+00
     13.000     8.6678    31.4323    9.32375   98.03361    24.3765 1.0552e+02     13.074     0.8695 0.0000e+00
     12.000     8.6894    31.4191    9.33064   98.14809    24.3630 1.2234e+02     12.098     0.8651 0.0000e+00
     11.000     8.7086    31.4085    9.32962   98.17438    24.3521 1.4299e+02     11.099     0.8464 0.0000e+00
     10.000     8.7278    31.3937    9.33590   98.31112    24.3372 1.6299e+02     10.034     0.8434 0.0000e+00
      9.000     8.7439    31.3868    9.33951   98.40684    24.3298 1.8827e+02      9.148     0.8304 0.0000e+00
      8.000     8.7810    31.3714    9.34297   98.48071    24.3131 2.0063e+02      7.985     0.8062 0.0000e+00
      7.000     8.8102    31.3521    9.34174   98.52445    24.2930 2.1291e+02      7.117     0.7979 0.0000e+00
      6.000     8.8285    31.3374    9.34286   98.58813    24.2780 1.9304e+02      5.995     0.8027 0.0000e+00
      5.000     8.8555    31.3348    9.34064   98.68436    24.2731 1.8766e+02      5.102     0.7737 0.0000e+00
      4.000     8.8791    31.3231    9.34285   99.00421    24.2594 1.6638e+02      3.987     0.7457 0.0000e+00
      3.000     8.9317    31.3275    9.33656   99.91293    24.2579 1.6076e+02      3.036     0.7145 0.0000e+00
      2.000     9.0631    31.2831    9.30046   99.86145    24.2068 1.6537e+02      2.052     0.6368 0.0000e+00
      1.000     9.5707    31.1310    9.36997   98.05308    24.0366 2.6059e+02      1.069     0.5312 0.0000e+00
