* Sea-Bird SBE19plus Data File:
* FileName = C:\data\otf\2007\ctd-07054.hex
* Software Version 1.55
* Temperature SN =  5061
* Conductivity SN =  5061
* System UpLoad Time = Aug 15 2007 16:11:40
* ds
* SeacatPlus V 1.6a  SERIAL NO. 5061    15 Aug 2007  15:31:53
* vbatt = 10.9, vlith =  8.7, ioper =  61.6 ma, ipump =  57.5 ma, 
* iext01 =  95.2 ma
* iext23 =  58.1 ma
* 
* status = not logging
* number of scans to average = 1
* samples = 153039, free = 288466, casts = 154
* mode = profile, minimum cond freq = 3000, pump delay = 60 sec
* autorun = no, ignore magnetic switch = no
* battery type = alkaline, battery cutoff =  7.3 volts
* pressure sensor = strain gauge, range = 870.0
* SBE 38 = no, Gas Tension Device = no
* Ext Volt 0 = yes, Ext Volt 1 = yes, Ext Volt 2 = yes, Ext Volt 3 = yes
* echo commands = yes
* output format = raw HEX
* S>
* 
* SeacatPlus V 1.6a  SERIAL NO. 5061    15 Aug 2007  15:32:18
* temperature:  05-oct-06
*     TA0 = 1.254184e-03
*     TA1 = 2.596730e-04
*     TA2 = 5.165612e-07
*     TA3 = 1.318931e-07
*     TOFFSET = 0.000000e+00
* conductivity:  05-oct-06
*     G = -9.978144e-01
*     H = 1.555200e-01
*     I = -4.839108e-04
*     J = 6.121100e-05
*     CF0 = 2.539936e+03
*     CPCOR = -9.570000e-08
*     CTCOR = 3.250000e-06
*     CSLOPE = 1.000000e+00
* pressure S/N = 2362539, range = 870 psia:  24-aug-06
*     PA0 = 2.171091e-01
*     PA1 = 2.647085e-03
*     PA2 = 1.419397e-11
*     PTCA0 = 5.242437e+05
*     PTCA1 = 7.545345e+00
*     PTCA2 = -1.835354e-01
*     PTCB0 = 2.537125e+01
*     PTCB1 = -1.750000e-03
*     PTCB2 = 0.000000e+00
*     PTEMPA0 = -5.753989e+01
*     PTEMPA1 = 5.235813e+01
*     PTEMPA2 = -4.015521e-02
*     POFFSET = 0.000000e+00
* volt 0: offset = -4.682842e-02, slope = 1.249147e+00
* volt 1: offset = -4.695158e-02, slope = 1.248145e+00
* volt 2: offset = -4.685263e-02, slope = 1.248783e+00
* volt 3: offset = -4.690316e-02, slope = 1.249508e+00
*     EXTFREQSF = 1.000002e+00
* dh
* cast  54 11 Jul 2007 12:31:30 samples 43852 to 44183, avg = 4, stop = mag switch
* S> 
# nquan = 10
# nvalues = 170                         
# units = specified
# name 0 = depSM: Depth [salt water, m]
# name 1 = tv290C: Temperature [ITS-90, deg C]
# name 2 = sal00: Salinity [PSU]
# name 3 = sbeox0Mg/L: Oxygen, SBE 43 [mg/l]
# name 4 = sbeox0PS: Oxygen, SBE 43 [% saturation]
# name 5 = sigma-t00: Density [sigma-t, Kg/m^3 ]
# name 6 = par: PAR/Irradiance, Biospherical/Licor
# name 7 = prdM: Pressure, Strain Gauge [db]
# name 8 = flECO-AFL: Fluorescence, Wetlab ECO-AFL/FL [mg/m^3]
# name 9 = flag: flag
# span 0 =      1.000,     87.000       
# span 1 =     8.2453,     9.1801       
# span 2 =    30.8148,    31.5380       
# span 3 =    8.40469,   11.48657       
# span 4 =   87.79431,  102.44370       
# span 5 =    23.8533,    24.5207       
# span 6 = 1.5438e+00, 5.0800e+02       
# span 7 =      1.741,     86.296       
# span 8 =     0.2511,     0.7313       
# span 9 = 0.0000e+00, 0.0000e+00       
# interval = meters: 1                  
# start_time = Jul 11 2007 12:31:30
# bad_flag = -9.990e-29
# sensor 0 = Frequency 0  temperature, 5061, 05-Oct-06
# sensor 1 = Frequency 1  conductivity, 5061, 05-Oct-06, cpcor = -9.5700e-08
# sensor 2 = Pressure Number
# sensor 3 = Extrnl Volt  0  irradiance (PAR), primary, 4751, 08/10/06
# sensor 4 = Extrnl Volt  1  Oxygen, SBE, primary, 1081, 10/24/06
# sensor 5 = Extrnl Volt  2  WET Labs, ECO_AFL
# sensor 6 = Extrnl Volt  3  userpoly 0, 0627, 10/11/06
# datcnv_date = Oct 15 2007 14:49:45, 5.37e
# datcnv_in = I:\bob d\OTF_GEM\2007\ctd-07054.hex I:\Willette\OTF\CTD\5061.con
# datcnv_skipover = 0
# filter_date = Oct 15 2007 15:02:24, 5.37e
# filter_in = I:\Willette\OTF\CTD\2007\CTD Data\ctd-07054.cnv
# filter_low_pass_tc_A = 1.000
# filter_low_pass_tc_B = 0.150
# filter_low_pass_A_vars = prdM
# filter_low_pass_B_vars =
# loopedit_date = Oct 15 2007 15:06:47, 5.37e
# loopedit_in = I:\Willette\OTF\CTD\2007\CTD Data\ctd-07054.cnv
# loopedit_minVelocity = 0.250                                                                                            
# loopedit_surfaceSoak: minDepth = 5.0, maxDepth = 20, useDeckPress = 1                                                   
# loopedit_excl_bad_scans = yes
# alignctd_date = Oct 15 2007 15:14:15, 5.37e
# alignctd_in = I:\Willette\OTF\CTD\2007\CTD Data\ctd-07054.cnv
# alignctd_adv = tv290C 0.500, sbeox0Mg/L 4.000, sbeox0PS 4.000                                                                                                                                                                      
# binavg_date = Oct 15 2007 15:18:44, 5.37e
# binavg_in = I:\Willette\OTF\CTD\2007\CTD Data\ctd-07054.cnv
# binavg_bintype = meters
# binavg_binsize = 1
# binavg_excl_bad_scans = yes
# binavg_skipover = 0
# binavg_surface_bin = no, min = 0.000, max = 0.000, value = 0.000
# file_type = ascii
*END*
      4.000     8.8388    30.8373    8.53661   89.37758    23.8567 5.0800e+02      4.579     0.2511 0.0000e+00
      5.000     8.8768    30.9192    8.47444   88.63970    23.9299 3.6179e+02      5.111     0.3311 0.0000e+00
      6.000     8.8574    31.1386    8.40469   87.79431    24.1149 2.6273e+02      5.874     0.4121 0.0000e+00
      7.000     8.6775    31.1334    8.56789   89.43745    24.1141 2.0266e+02      7.030     0.4683 0.0000e+00
      8.000     8.5591    31.3069    9.02499   94.16447    24.2801 1.6597e+02      8.247     0.5199 0.0000e+00
      9.000     8.6913    31.3823    9.24021   96.39949    24.3499 1.3741e+02      9.125     0.5754 0.0000e+00
     10.000     8.5912    31.2397    9.40530   98.11533    24.2014 1.1348e+02     10.290     0.5771 0.0000e+00
     11.000     8.6139    31.3329    9.45271   98.60062    24.3005 9.2027e+01     11.246     0.6027 0.0000e+00
     12.000     8.4993    31.4157    9.49555   99.04330    24.3759 7.6962e+01     12.417     0.6062 0.0000e+00
     13.000     8.4112    31.4470    9.53495   99.45949    24.4126 6.4809e+01     13.621     0.5620 0.0000e+00
     14.000     8.3867    31.4416    9.55959   99.72422    24.4198 5.5301e+01     14.689     0.5269 0.0000e+00
     15.000     8.3701    31.4651    9.57877   99.93262    24.4437 4.6372e+01     15.616     0.5475 0.0000e+00
     16.000     8.3594    31.4210    9.59765  100.12533    24.4085 3.8933e+01     16.637     0.5533 0.0000e+00
     17.000     8.3568    31.4171    9.60747  100.22859    24.4085 3.3241e+01     17.317     0.5799 0.0000e+00
     18.000     8.3534    31.4239    9.61991  100.35547    24.4149 2.7623e+01     18.263     0.5185 0.0000e+00
     19.000     8.3478    31.4208    9.62132  100.37101    24.4131 2.3737e+01     19.356     0.4951 0.0000e+00
     20.000     8.3500    31.4187    9.63137  100.47699    24.4118 2.0788e+01     20.027     0.4557 0.0000e+00
     21.000     8.3455    31.4228    9.64256  100.58101    24.4154 1.8028e+01     21.101     0.4986 0.0000e+00
     22.000     8.3437    31.4215    9.65349  100.68464    24.4147 1.5995e+01     22.141     0.5073 0.0000e+00
     23.000     8.3428    31.4243    9.66795  100.82560    24.4173 1.4009e+01     22.925     0.4844 0.0000e+00
     24.000     8.3436    31.4246    9.67632  100.91330    24.4177 1.2371e+01     24.137     0.5059 0.0000e+00
     25.000     8.3466    31.4255    9.68247  100.97471    24.4186 1.0929e+01     25.006     0.4753 0.0000e+00
     26.000     8.3507    31.4244    9.68556  101.00183    24.4173 9.4934e+00     26.169     0.4910 0.0000e+00
     27.000     8.3516    31.4247    9.69440  101.08515    24.4170 8.2981e+00     27.196     0.5306 0.0000e+00
     28.000     8.3514    31.4213    9.70281  101.17042    24.4135 7.1380e+00     28.349     0.5438 0.0000e+00
     29.000     8.3504    31.4219    9.71158  101.25855    24.4145 6.3011e+00     29.416     0.5271 0.0000e+00
     30.000     8.3513    31.4216    9.70759  101.21939    24.4143 5.4808e+00     30.449     0.5243 0.0000e+00
     31.000     8.3419    31.4234    9.71300  101.27362    24.4158 4.7957e+00     31.716     0.5217 0.0000e+00
     32.000     8.3461    31.4197    9.71891  101.34037    24.4127 4.3159e+00     32.349     0.4920 0.0000e+00
     33.000     8.3369    31.4249    9.72834  101.43612    24.4177 3.8087e+00     33.402     0.5110 0.0000e+00
     34.000     8.3363    31.4246    9.73166  101.47183    24.4180 3.4639e+00     34.264     0.5156 0.0000e+00
     35.000     8.3345    31.4283    9.73354  101.49037    24.4217 3.1083e+00     35.142     0.5114 0.0000e+00
     36.000     8.3321    31.4287    9.72910  101.43590    24.4218 2.8006e+00     36.620     0.5228 0.0000e+00
     37.000     8.3306    31.4299    9.72893  101.43621    24.4232 2.6046e+00     37.223     0.5000 0.0000e+00
     38.000     8.3226    31.4288    9.73598  101.50038    24.4224 2.4196e+00     38.686     0.5111 0.0000e+00
     39.000     8.3243    31.4334    9.73980  101.53491    24.4268 2.2875e+00     39.167     0.5076 0.0000e+00
     40.000     8.3223    31.4381    9.74123  101.54701    24.4312 2.1512e+00     40.590     0.4705 0.0000e+00
     41.000 -9.990e-29 -9.990e-29 -9.990e-29 -9.990e-29 -9.990e-29 -9.990e-29 -9.990e-29 -9.990e-29 -9.990e-29
     42.000     8.3239    31.4389    9.73574  101.47457    24.4320 1.9897e+00     42.076     0.4862 0.0000e+00
     43.000     8.3257    31.4355    9.73885  101.48652    24.4290 1.9002e+00     43.748     0.4932 0.0000e+00
     44.000     8.3250    31.4363    9.74154  101.50820    24.4297 1.8363e+00     44.392     0.5149 0.0000e+00
     45.000     8.3253    31.4343    9.74760  101.56309    24.4279 1.7864e+00     45.526     0.5170 0.0000e+00
     46.000     8.3249    31.4342    9.75348  101.62065    24.4280 1.7452e+00     46.242     0.5089 0.0000e+00
     47.000     8.3213    31.4351    9.75531  101.64311    24.4285 1.7033e+00     47.505     0.4738 0.0000e+00
     48.000     8.3220    31.4338    9.75216  101.60758    24.4277 1.6791e+00     48.374     0.5094 0.0000e+00
     49.000     8.3183    31.4369    9.75755  101.66031    24.4305 1.6548e+00     49.247     0.4980 0.0000e+00
     50.000     8.3106    31.4385    9.75893  101.67559    24.4320 1.6354e+00     50.395     0.5409 0.0000e+00
     51.000     8.3108    31.4446    9.75687  101.65609    24.4375 1.6198e+00     51.272     0.5015 0.0000e+00
     52.000     8.3045    31.4507    9.76291  101.71679    24.4430 1.6057e+00     52.349     0.5243 0.0000e+00
     53.000     8.2944    31.4554    9.77574  101.84960    24.4469 1.5952e+00     53.515     0.5067 0.0000e+00
     54.000     8.2833    31.4697    9.77429  101.82834    24.4598 1.5867e+00     54.513     0.5047 0.0000e+00
     55.000     8.2786    31.4820    9.77388  101.81163    24.4707 1.5799e+00     55.442     0.5104 0.0000e+00
     56.000     8.2723    31.4935    9.77137  101.77614    24.4811 1.5741e+00     56.632     0.5047 0.0000e+00
     57.000     8.2745    31.4987    9.77122  101.77456    24.4857 1.5691e+00     57.404     0.5257 0.0000e+00
     58.000     8.2720    31.5001    9.76919  101.75140    24.4871 1.5652e+00     58.694     0.5495 0.0000e+00
     59.000     8.2715    31.5008    9.77127  101.76816    24.4876 1.5618e+00     59.607     0.5422 0.0000e+00
     60.000     8.2722    31.5024    9.77493  101.80537    24.4892 1.5585e+00     60.677     0.5563 0.0000e+00
     61.000     8.2724    31.5015    9.77638  101.82006    24.4884 1.5562e+00     61.654     0.5360 0.0000e+00
     62.000     8.2705    31.5009    9.77388  101.79346    24.4878 1.5538e+00     62.750     0.5387 0.0000e+00
     63.000     8.2697    31.5023    9.77881  101.84523    24.4891 1.5527e+00     63.771     0.5381 0.0000e+00
     64.000     8.2648    31.5035    9.78020  101.85936    24.4902 1.5515e+00     65.036     0.5287 0.0000e+00
     65.000     8.2565    31.5078    9.77970  101.85421    24.4939 1.5501e+00     65.853     0.5147 0.0000e+00
     66.000     8.2528    31.5170    9.78559  101.91605    24.5020 1.5492e+00     66.911     0.5066 0.0000e+00
     67.000     8.2518    31.5257    9.78738  101.93466    24.5099 1.5485e+00     67.979     0.5244 0.0000e+00
     68.000     8.2509    31.5275    9.78582  101.91838    24.5116 1.5477e+00     68.827     0.5375 0.0000e+00
     69.000     8.2501    31.5285    9.78543  101.91463    24.5125 1.5472e+00     69.775     0.5323 0.0000e+00
     70.000     8.2470    31.5297    9.78487  101.90899    24.5136 1.5469e+00     70.737     0.5403 0.0000e+00
     71.000     8.2463    31.5311    9.78246  101.88433    24.5148 1.5464e+00     71.589     0.5522 0.0000e+00
     72.000     8.2463    31.5353    9.78107  101.87048    24.5185 1.5461e+00     72.576     0.5467 0.0000e+00
     73.000     8.2456    31.5358    9.78100  101.87034    24.5190 1.5462e+00     73.691     0.5507 0.0000e+00
     74.000     8.2453    31.5358    9.77541  101.81274    24.5190 1.5452e+00     74.580     0.5574 0.0000e+00
     75.000     8.2455    31.5373    9.77350  101.79540    24.5202 1.5455e+00     75.732     0.5731 0.0000e+00
     76.000     8.2454    31.5377    9.77972  101.86013    24.5207 1.5454e+00     76.670     0.6038 0.0000e+00
     77.000     8.2454    31.5378    9.78245  101.88667    24.5207 1.5454e+00     77.590     0.6116 0.0000e+00
     78.000     8.2457    31.5375    9.78405  101.90473    24.5205 1.5453e+00     78.667     0.5922 0.0000e+00
     79.000     8.2457    31.5377    9.78237  101.89133    24.5206 1.5453e+00     79.686     0.5691 0.0000e+00
     80.000     8.2456    31.5374    9.77969  101.86078    24.5203 1.5453e+00     80.594     0.5797 0.0000e+00
     81.000     8.2456    31.5376    9.76243  101.67846    24.5205 1.5446e+00     81.495     0.5886 0.0000e+00
     82.000     8.2458    31.5377    9.76509  101.70816    24.5206 1.5449e+00     82.362     0.5787 0.0000e+00
     83.000 -9.990e-29 -9.990e-29 -9.990e-29 -9.990e-29 -9.990e-29 -9.990e-29 -9.990e-29 -9.990e-29 -9.990e-29
     84.000     8.2462    31.5376    9.77065  101.76608    24.5205 1.5452e+00     83.897     0.5949 0.0000e+00
     85.000     8.2466    31.5376    9.77178  101.77644    24.5204 1.5449e+00     84.606     0.5901 0.0000e+00
     86.000     8.2468    31.5377    9.76945  101.75062    24.5205 1.5448e+00     85.257     0.5752 0.0000e+00
     87.000     8.2478    31.5375    9.76651  101.71954    24.5202 1.5449e+00     86.296     0.7313 0.0000e+00
     86.000     8.2480    31.5370    9.76658  101.72074    24.5196 1.5449e+00     86.114     0.5709 0.0000e+00
     85.000     8.2481    31.5372    9.76522  101.70662    24.5198 1.5451e+00     85.371     0.6408 0.0000e+00
     84.000     8.2469    31.5373    9.77167  101.77278    24.5199 1.5448e+00     84.438     0.6769 0.0000e+00
     83.000     8.2469    31.5371    9.76686  101.72254    24.5199 1.5450e+00     83.694     0.6786 0.0000e+00
     82.000     8.2467    31.5378    9.76678  101.72386    24.5206 1.5448e+00     82.649     0.6120 0.0000e+00
     81.000     8.2470    31.5372    9.77696  101.82970    24.5200 1.5451e+00     81.651     0.6034 0.0000e+00
     80.000     8.2467    31.5375    9.76983  101.75906    24.5203 1.5450e+00     80.696     0.5951 0.0000e+00
     79.000     8.2460    31.5380    9.76385  101.70041    24.5205 1.5451e+00     79.820     0.6346 0.0000e+00
     78.000     8.2471    31.5373    9.76514  101.71443    24.5202 1.5438e+00     78.589     0.6296 0.0000e+00
     77.000     8.2465    31.5378    9.76290  101.68871    24.5206 1.5442e+00     77.694     0.6144 0.0000e+00
     76.000     8.2463    31.5380    9.76469  101.70655    24.5207 1.5448e+00     76.815     0.5989 0.0000e+00
     75.000     8.2476    31.5365    9.77376  101.80269    24.5195 1.5453e+00     75.721     0.6039 0.0000e+00
     74.000     8.2483    31.5361    9.77709  101.83852    24.5190 1.5457e+00     74.816     0.5975 0.0000e+00
     73.000     8.2510    31.5330    9.77453  101.80697    24.5165 1.5458e+00     73.572     0.5904 0.0000e+00
     72.000     8.2529    31.5305    9.77545  101.82317    24.5142 1.5462e+00     72.702     0.5542 0.0000e+00
     71.000     8.2534    31.5279    9.77515  101.82250    24.5118 1.5464e+00     71.714     0.6250 0.0000e+00
     70.000     8.2523    31.5273    9.77416  101.81489    24.5113 1.5469e+00     70.631     0.5874 0.0000e+00
     69.000     8.2510    31.5285    9.77386  101.81418    24.5124 1.5475e+00     69.714     0.6017 0.0000e+00
     68.000     8.2530    31.5300    9.76946  101.76872    24.5138 1.5480e+00     68.602     0.6600 0.0000e+00
     67.000     8.2534    31.5265    9.76830  101.75754    24.5107 1.5488e+00     67.514     0.5651 0.0000e+00
     66.000     8.2510    31.5272    9.76795  101.75548    24.5112 1.5491e+00     66.662     0.5651 0.0000e+00
     65.000     8.2553    31.5295    9.77375  101.81612    24.5134 1.5510e+00     65.388     0.6050 0.0000e+00
     64.000     8.2562    31.5254    9.76845  101.76100    24.5098 1.5526e+00     64.659     0.5886 0.0000e+00
     63.000     8.2588    31.5219    9.76795  101.76624    24.5066 1.5541e+00     63.381     0.5664 0.0000e+00
     62.000     8.2597    31.5196    9.77262  101.81744    24.5046 1.5557e+00     62.575     0.6192 0.0000e+00
     61.000     8.2596    31.5184    9.76443  101.74440    24.5034 1.5581e+00     61.704     0.6286 0.0000e+00
     60.000     8.2615    31.5172    9.76771  101.79802    24.5024 1.5606e+00     60.377     0.5234 0.0000e+00
     59.000     8.2618    31.5159    9.76762  101.80411    24.5013 1.5642e+00     59.643     0.5681 0.0000e+00
     58.000     8.2622    31.5149    9.76586  101.79934    24.5004 1.5683e+00     58.631     0.5568 0.0000e+00
     57.000     8.2616    31.5142    9.76741  101.81980    24.4998 1.5735e+00     57.502     0.5887 0.0000e+00
     56.000     8.2652    31.5155    9.76567  101.80313    24.5009 1.5797e+00     56.572     0.6544 0.0000e+00
     55.000     8.2695    31.5092    9.76638  101.81449    24.4954 1.5871e+00     55.444     0.5946 0.0000e+00
     54.000     8.2779    31.5039    9.77316  101.89370    24.4906 1.5963e+00     54.433     0.6086 0.0000e+00
     53.000     8.2901    31.4937    9.77580  101.91399    24.4817 1.6057e+00     53.398     0.5138 0.0000e+00
     52.000     8.2940    31.4800    9.76963  101.84818    24.4694 1.6192e+00     52.590     0.5610 0.0000e+00
     51.000     8.3059    31.4707    9.75391  101.69868    24.4610 1.6350e+00     51.479     0.5636 0.0000e+00
     50.000     8.3095    31.4556    9.75017  101.66345    24.4476 1.6541e+00     50.459     0.5497 0.0000e+00
     49.000     8.3113    31.4510    9.74754  101.63777    24.4434 1.6763e+00     49.468     0.5390 0.0000e+00
     48.000     8.3127    31.4477    9.74118  101.57176    24.4405 1.7027e+00     48.378     0.6103 0.0000e+00
     47.000     8.3152    31.4474    9.74140  101.56867    24.4401 1.7310e+00     47.518     0.5701 0.0000e+00
     46.000     8.3209    31.4431    9.74151  101.56891    24.4364 1.7685e+00     46.437     0.5559 0.0000e+00
     45.000     8.3153    31.4413    9.74830  101.64290    24.4345 1.8128e+00     45.480     0.5462 0.0000e+00
     44.000     8.3195    31.4457    9.74571  101.61778    24.4386 1.8638e+00     44.463     0.5212 0.0000e+00
     43.000     8.3236    31.4402    9.74548  101.62105    24.4336 1.9294e+00     43.394     0.5125 0.0000e+00
     42.000     8.3251    31.4363    9.75230  101.70703    24.4299 2.0016e+00     42.425     0.5212 0.0000e+00
     41.000     8.3260    31.4344    9.75605  101.74759    24.4281 2.0886e+00     41.367     0.5528 0.0000e+00
     40.000     8.3254    31.4339    9.75397  101.72288    24.4275 2.1878e+00     40.375     0.5718 0.0000e+00
     39.000     8.3221    31.4350    9.75448  101.72914    24.4286 2.3247e+00     39.307     0.5523 0.0000e+00
     38.000     8.3234    31.4384    9.75844  101.77596    24.4317 2.4780e+00     38.261     0.5236 0.0000e+00
     37.000     8.3250    31.4362    9.74933  101.68497    24.4297 2.6589e+00     37.262     0.5216 0.0000e+00
     36.000     8.3255    31.4349    9.75412  101.74192    24.4284 2.8866e+00     36.264     0.5369 0.0000e+00
     35.000     8.3316    31.4344    9.74928  101.69264    24.4280 3.1486e+00     35.247     0.5941 0.0000e+00
     34.000     8.3364    31.4334    9.74550  101.65264    24.4267 3.4535e+00     34.391     0.5960 0.0000e+00
     33.000     8.3361    31.4284    9.73968  101.59179    24.4216 3.8367e+00     33.160     0.5406 0.0000e+00
     32.000     8.3351    31.4284    9.74031  101.60022    24.4217 4.3067e+00     32.332     0.5183 0.0000e+00
     31.000     8.3347    31.4289    9.74305  101.63337    24.4223 4.8546e+00     31.319     0.5327 0.0000e+00
     30.000     8.3370    31.4297    9.73937  101.59871    24.4230 5.5338e+00     30.279     0.5391 0.0000e+00
     29.000     8.3392    31.4294    9.73576  101.56409    24.4225 6.2833e+00     29.314     0.5033 0.0000e+00
     28.000     8.3419    31.4282    9.72609  101.46612    24.4212 7.2260e+00     28.366     0.5037 0.0000e+00
     27.000     8.3444    31.4272    9.73470  101.55924    24.4200 8.3063e+00     27.380     0.5226 0.0000e+00
     26.000     8.3441    31.4247    9.74394  101.65864    24.4177 9.6619e+00     26.290     0.5059 0.0000e+00
     25.000     8.3441    31.4240    9.73996  101.61912    24.4171 1.1288e+01     25.313     0.5047 0.0000e+00
     24.000     8.3453    31.4233    9.74016  101.62407    24.4166 1.3036e+01     24.149     0.5589 0.0000e+00
     23.000     8.3467    31.4232    9.74753  101.70343    24.4165 1.5168e+01     23.335     0.5487 0.0000e+00
     22.000     8.3489    31.4233    9.74673  101.70153    24.4163 1.7749e+01     22.262     0.5369 0.0000e+00
     21.000     8.3501    31.4228    9.74111  101.67323    24.4155 2.0919e+01     21.315     0.5130 0.0000e+00
     20.000     8.3518    31.4227    9.74837  101.78419    24.4153 2.4706e+01     20.167     0.4932 0.0000e+00
     19.000     8.3532    31.4245    9.74472  101.76697    24.4164 2.9414e+01     19.160     0.5423 0.0000e+00
     18.000     8.3540    31.4246    9.74010  101.72351    24.4164 3.4580e+01     18.148     0.4946 0.0000e+00
     17.000     8.3553    31.4250    9.74427  101.77434    24.4166 4.0271e+01     17.152     0.5118 0.0000e+00
     16.000     8.3565    31.4240    9.73834  101.74206    24.4155 4.7143e+01     16.120     0.5219 0.0000e+00
     15.000     8.3589    31.4244    9.74050  101.81679    24.4157 5.4785e+01     15.214     0.4975 0.0000e+00
     14.000     8.3723    31.4242    9.75249  102.08066    24.4152 6.1952e+01     14.068     0.5070 0.0000e+00
     13.000     8.3871    31.4227    9.74939  102.13775    24.4122 6.9184e+01     13.080     0.5892 0.0000e+00
     12.000     8.4011    31.4126    9.74334  102.23772    24.4013 7.7109e+01     11.913     0.5892 0.0000e+00
     11.000     8.4031    31.4107    9.73984  102.38428    24.3990 9.2073e+01     11.121     0.6145 0.0000e+00
     10.000     8.4062    31.4083    9.73458  102.44370    24.3965 1.1172e+02     10.254     0.6078 0.0000e+00
      9.000     8.4150    31.4033    9.69795  102.30191    24.3916 1.3534e+02      8.899     0.6265 0.0000e+00
      8.000     8.4425    31.3991    9.59606  101.32104    24.3871 1.6261e+02      8.096     0.5900 0.0000e+00
      7.000     8.5028    31.3875   10.59764  100.46906    24.3757 1.9809e+02      7.146     0.5697 0.0000e+00
      6.000     8.5563    31.3358   11.27391  100.17416    24.3260 2.4638e+02      6.144     0.5066 0.0000e+00
      5.000     8.6246    31.2838   11.42093  100.17390    24.2770 3.2033e+02      5.198     0.5163 0.0000e+00
      4.000     8.7642    31.2020   11.48657  100.17557    24.2013 3.6895e+02      4.134     0.4558 0.0000e+00
      3.000     8.8605    31.0781 -9.990e-29 -9.990e-29    24.0873 3.6904e+02      3.325     0.4078 0.0000e+00
      2.000     8.9333    30.9304 -9.990e-29 -9.990e-29    23.9537 3.6159e+02      2.463     0.3604 0.0000e+00
      1.000     9.1801    30.8148 -9.990e-29 -9.990e-29    23.8533 3.4171e+02      1.741     0.2664 0.0000e+00
