* Sea-Bird SBE19plus Data File:
* FileName = C:\data\otf\2007\ctd-07081.hex
* Software Version 1.55
* Temperature SN =  5061
* Conductivity SN =  5061
* System UpLoad Time = Aug 15 2007 16:21:49
* ds
* SeacatPlus V 1.6a  SERIAL NO. 5061    15 Aug 2007  15:31:53
* vbatt = 10.9, vlith =  8.7, ioper =  61.6 ma, ipump =  57.5 ma, 
* iext01 =  95.2 ma
* iext23 =  58.1 ma
* 
* status = not logging
* number of scans to average = 1
* samples = 153039, free = 288466, casts = 154
* mode = profile, minimum cond freq = 3000, pump delay = 60 sec
* autorun = no, ignore magnetic switch = no
* battery type = alkaline, battery cutoff =  7.3 volts
* pressure sensor = strain gauge, range = 870.0
* SBE 38 = no, Gas Tension Device = no
* Ext Volt 0 = yes, Ext Volt 1 = yes, Ext Volt 2 = yes, Ext Volt 3 = yes
* echo commands = yes
* output format = raw HEX
* S>
* 
* SeacatPlus V 1.6a  SERIAL NO. 5061    15 Aug 2007  15:32:18
* temperature:  05-oct-06
*     TA0 = 1.254184e-03
*     TA1 = 2.596730e-04
*     TA2 = 5.165612e-07
*     TA3 = 1.318931e-07
*     TOFFSET = 0.000000e+00
* conductivity:  05-oct-06
*     G = -9.978144e-01
*     H = 1.555200e-01
*     I = -4.839108e-04
*     J = 6.121100e-05
*     CF0 = 2.539936e+03
*     CPCOR = -9.570000e-08
*     CTCOR = 3.250000e-06
*     CSLOPE = 1.000000e+00
* pressure S/N = 2362539, range = 870 psia:  24-aug-06
*     PA0 = 2.171091e-01
*     PA1 = 2.647085e-03
*     PA2 = 1.419397e-11
*     PTCA0 = 5.242437e+05
*     PTCA1 = 7.545345e+00
*     PTCA2 = -1.835354e-01
*     PTCB0 = 2.537125e+01
*     PTCB1 = -1.750000e-03
*     PTCB2 = 0.000000e+00
*     PTEMPA0 = -5.753989e+01
*     PTEMPA1 = 5.235813e+01
*     PTEMPA2 = -4.015521e-02
*     POFFSET = 0.000000e+00
* volt 0: offset = -4.682842e-02, slope = 1.249147e+00
* volt 1: offset = -4.695158e-02, slope = 1.248145e+00
* volt 2: offset = -4.685263e-02, slope = 1.248783e+00
* volt 3: offset = -4.690316e-02, slope = 1.249508e+00
*     EXTFREQSF = 1.000002e+00
* dh
* cast  81 15 Jul 2007 16:47:51 samples 53514 to 53830, avg = 4, stop = mag switch
* S> 
# nquan = 10
# nvalues = 169                         
# units = specified
# name 0 = depSM: Depth [salt water, m]
# name 1 = tv290C: Temperature [ITS-90, deg C]
# name 2 = sal00: Salinity [PSU]
# name 3 = sbeox0Mg/L: Oxygen, SBE 43 [mg/l]
# name 4 = sbeox0PS: Oxygen, SBE 43 [% saturation]
# name 5 = sigma-t00: Density [sigma-t, Kg/m^3 ]
# name 6 = par: PAR/Irradiance, Biospherical/Licor
# name 7 = prdM: Pressure, Strain Gauge [db]
# name 8 = flECO-AFL: Fluorescence, Wetlab ECO-AFL/FL [mg/m^3]
# name 9 = flag: flag
# span 0 =      1.000,     86.000       
# span 1 =     8.5925,     9.2630       
# span 2 =    30.9722,    31.3396       
# span 3 =    9.10785,   11.42766       
# span 4 =   95.83585,  102.62696       
# span 5 =    23.9432,    24.3145       
# span 6 = 1.5400e+00, 3.5390e+02       
# span 7 =      1.757,     85.333       
# span 8 =     0.3751,     1.3738       
# span 9 = 0.0000e+00, 0.0000e+00       
# interval = meters: 1                  
# start_time = Jul 15 2007 16:47:51
# bad_flag = -9.990e-29
# sensor 0 = Frequency 0  temperature, 5061, 05-Oct-06
# sensor 1 = Frequency 1  conductivity, 5061, 05-Oct-06, cpcor = -9.5700e-08
# sensor 2 = Pressure Number
# sensor 3 = Extrnl Volt  0  irradiance (PAR), primary, 4751, 08/10/06
# sensor 4 = Extrnl Volt  1  Oxygen, SBE, primary, 1081, 10/24/06
# sensor 5 = Extrnl Volt  2  WET Labs, ECO_AFL
# sensor 6 = Extrnl Volt  3  userpoly 0, 0627, 10/11/06
# datcnv_date = Oct 15 2007 14:49:46, 5.37e
# datcnv_in = I:\bob d\OTF_GEM\2007\ctd-07081.hex I:\Willette\OTF\CTD\5061.con
# datcnv_skipover = 0
# filter_date = Oct 15 2007 15:02:26, 5.37e
# filter_in = I:\Willette\OTF\CTD\2007\CTD Data\ctd-07081.cnv
# filter_low_pass_tc_A = 1.000
# filter_low_pass_tc_B = 0.150
# filter_low_pass_A_vars = prdM
# filter_low_pass_B_vars =
# loopedit_date = Oct 15 2007 15:06:48, 5.37e
# loopedit_in = I:\Willette\OTF\CTD\2007\CTD Data\ctd-07081.cnv
# loopedit_minVelocity = 0.250                                                                                            
# loopedit_surfaceSoak: minDepth = 5.0, maxDepth = 20, useDeckPress = 1                                                   
# loopedit_excl_bad_scans = yes
# alignctd_date = Oct 15 2007 15:14:16, 5.37e
# alignctd_in = I:\Willette\OTF\CTD\2007\CTD Data\ctd-07081.cnv
# alignctd_adv = tv290C 0.500, sbeox0Mg/L 4.000, sbeox0PS 4.000                                                                                                                                                                      
# binavg_date = Oct 15 2007 15:18:45, 5.37e
# binavg_in = I:\Willette\OTF\CTD\2007\CTD Data\ctd-07081.cnv
# binavg_bintype = meters
# binavg_binsize = 1
# binavg_excl_bad_scans = yes
# binavg_skipover = 0
# binavg_surface_bin = no, min = 0.000, max = 0.000, value = 0.000
# file_type = ascii
*END*
      3.000     9.0242    30.9802    9.26323   97.52617    23.9547 2.8390e+02      4.543     0.4208 0.0000e+00
      4.000     8.9945    31.0027    9.26547   97.54716    23.9796 2.4204e+02      5.363     0.4536 0.0000e+00
      5.000     8.9685    31.0210    9.26190   97.50378    24.0001 2.0002e+02      6.219     0.5209 0.0000e+00
      6.000 -9.990e-29 -9.990e-29 -9.990e-29 -9.990e-29 -9.990e-29 -9.990e-29 -9.990e-29 -9.990e-29 -9.990e-29
      7.000     8.9385    31.0434    9.27985   97.68281    24.0245 1.4255e+02      7.577     0.5789 0.0000e+00
      8.000     8.8933    31.0667    9.25398   97.39995    24.0468 9.9122e+01      8.786     0.7390 0.0000e+00
      9.000     8.8743    31.0701    9.25335   97.38297    24.0520 7.8143e+01      9.738     0.6842 0.0000e+00
     10.000     8.8665    31.0834    9.27581   97.62043    24.0670 6.2018e+01     10.562     0.7077 0.0000e+00
     11.000     8.8589    31.0983    9.24718   97.31911    24.0820 4.8442e+01     11.473     0.6643 0.0000e+00
     12.000 -9.990e-29 -9.990e-29 -9.990e-29 -9.990e-29 -9.990e-29 -9.990e-29 -9.990e-29 -9.990e-29 -9.990e-29
     13.000     8.8525    31.1117    9.17139   96.52198    24.0955 3.2991e+01     13.010     0.6613 0.0000e+00
     14.000     8.8537    31.1153    9.19072   96.72383    24.0996 2.4231e+01     14.149     0.6396 0.0000e+00
     15.000     8.8493    31.1186    9.15885   96.38356    24.1025 1.9317e+01     15.017     0.6575 0.0000e+00
     16.000 -9.990e-29 -9.990e-29 -9.990e-29 -9.990e-29 -9.990e-29 -9.990e-29 -9.990e-29 -9.990e-29 -9.990e-29
     17.000     8.8406    31.1180    9.16951   96.49491    24.1020 1.3624e+01     16.490     0.6552 0.0000e+00
     18.000     8.8388    31.1230    9.14413   96.22686    24.1070 1.0106e+01     17.724     0.6461 0.0000e+00
     19.000     8.8362    31.1299    9.10785   95.83585    24.1132 8.3283e+00     18.542     0.6493 0.0000e+00
     20.000     8.8330    31.1362    9.12094   95.96462    24.1184 6.8205e+00     19.527     0.6755 0.0000e+00
     21.000     8.8313    31.1408    9.14119   96.15764    24.1225 5.6980e+00     20.573     0.6532 0.0000e+00
     22.000     8.8278    31.1438    9.23827   97.16248    24.1254 4.8290e+00     21.591     0.6353 0.0000e+00
     23.000     8.8230    31.1446    9.37721   98.61489    24.1262 4.1275e+00     22.671     0.6574 0.0000e+00
     24.000     8.8189    31.1458    9.46721   99.55005    24.1277 3.5885e+00     23.627     0.6607 0.0000e+00
     25.000     8.8114    31.1526    9.53553  100.26238    24.1339 3.1382e+00     24.749     0.6359 0.0000e+00
     26.000     8.8102    31.1511    9.57191  100.64488    24.1335 2.8122e+00     25.813     0.6424 0.0000e+00
     27.000     8.8114    31.1585    9.59161  100.85026    24.1401 2.5550e+00     26.764     0.6419 0.0000e+00
     28.000     8.8110    31.1579    9.61873  101.12910    24.1396 2.3411e+00     27.921     0.6415 0.0000e+00
     29.000     8.8061    31.1598    9.63356  101.22915    24.1412 2.1768e+00     29.031     0.6876 0.0000e+00
     30.000     8.8073    31.1605    9.64880  101.35919    24.1423 2.0493e+00     29.997     0.6315 0.0000e+00
     31.000     8.7964    31.1658    9.66670  101.54563    24.1465 1.9420e+00     31.296     0.6734 0.0000e+00
     32.000     8.7833    31.1661    9.67606  101.64860    24.1479 1.8626e+00     32.367     0.6445 0.0000e+00
     33.000     8.7742    31.1616    9.68574  101.72369    24.1463 1.7982e+00     33.579     0.6547 0.0000e+00
     34.000     8.7645    31.1708    9.69663  101.83303    24.1551 1.7460e+00     34.668     0.6343 0.0000e+00
     35.000     8.7634    31.1815    9.70207  101.88358    24.1648 1.7064e+00     35.719     0.6967 0.0000e+00
     36.000     8.7631    31.1851    9.70817  101.95227    24.1681 1.6741e+00     36.532     0.6413 0.0000e+00
     37.000     8.7612    31.1864    9.71744  102.02276    24.1692 1.6470e+00     37.490     0.7119 0.0000e+00
     38.000     8.7576    31.1869    9.71963  102.02837    24.1695 1.6265e+00     38.407     0.6777 0.0000e+00
     39.000     8.7255    31.1892    9.72400  102.05706    24.1717 1.6104e+00     39.300     0.6766 0.0000e+00
     40.000     8.7111    31.2048    9.72343  102.04296    24.1864 1.5987e+00     40.188     0.6736 0.0000e+00
     41.000     8.7056    31.2299    9.72059  102.02632    24.2102 1.5874e+00     41.126     0.6721 0.0000e+00
     42.000     8.7107    31.2391    9.73435  102.13398    24.2189 1.5788e+00     42.342     0.6531 0.0000e+00
     43.000     8.7076    31.2372    9.74115  102.19536    24.2171 1.5725e+00     43.265     0.6751 0.0000e+00
     44.000     8.6889    31.2315    9.74920  102.28664    24.2117 1.5668e+00     44.703     0.6556 0.0000e+00
     45.000     8.6916    31.2436    9.75145  102.30948    24.2233 1.5630e+00     45.403     0.6907 0.0000e+00
     46.000     8.6882    31.2477    9.75544  102.34107    24.2272 1.5599e+00     46.342     0.7214 0.0000e+00
     47.000     8.6838    31.2565    9.74836  102.25009    24.2354 1.5571e+00     47.703     0.7121 0.0000e+00
     48.000     8.6705    31.2537    9.75353  102.32222    24.2328 1.5551e+00     48.636     0.7132 0.0000e+00
     49.000     8.6573    31.2669    9.75818  102.33036    24.2453 1.5533e+00     49.782     0.6989 0.0000e+00
     50.000     8.6506    31.2760    9.76306  102.36650    24.2539 1.5520e+00     50.825     0.6904 0.0000e+00
     51.000     8.6551    31.2861    9.76430  102.37614    24.2635 1.5510e+00     51.706     0.6920 0.0000e+00
     52.000     8.6436    31.2905    9.76473  102.38090    24.2677 1.5500e+00     52.834     0.7140 0.0000e+00
     53.000     8.6302    31.2820    9.76919  102.42835    24.2596 1.5498e+00     53.703     0.7066 0.0000e+00
     54.000     8.6295    31.2949    9.77144  102.44836    24.2718 1.5463e+00     54.572     0.7021 0.0000e+00
     55.000     8.6336    31.3101    9.76297  102.35693    24.2865 1.5415e+00     55.778     0.6801 0.0000e+00
     56.000     8.6349    31.3074    9.76673  102.39648    24.2837 1.5463e+00     56.557     0.7104 0.0000e+00
     57.000     8.6338    31.3040    9.76778  102.40687    24.2807 1.5472e+00     57.515     0.7631 0.0000e+00
     58.000     8.6247    31.3021    9.77297  102.46148    24.2787 1.5480e+00     58.679     0.7355 0.0000e+00
     59.000     8.6200    31.3059    9.77168  102.44869    24.2824 1.5480e+00     59.552     0.7326 0.0000e+00
     60.000 -9.990e-29 -9.990e-29 -9.990e-29 -9.990e-29 -9.990e-29 -9.990e-29 -9.990e-29 -9.990e-29 -9.990e-29
     61.000     8.6188    31.3155    9.77663  102.50091    24.2916 1.5476e+00     61.419     0.7281 0.0000e+00
     62.000     8.6015    31.3079    9.77617  102.49584    24.2843 1.5474e+00     62.525     0.7309 0.0000e+00
     63.000     8.5964    31.3202    9.77714  102.50608    24.2960 1.5467e+00     63.388     0.7240 0.0000e+00
     64.000     8.5957    31.3333    9.78045  102.54045    24.3086 1.5466e+00     64.407     0.7445 0.0000e+00
     65.000     8.5958    31.3359    9.77913  102.52658    24.3111 1.5476e+00     65.633     0.7620 0.0000e+00
     66.000     8.5963    31.3358    9.77666  102.49991    24.3110 1.5476e+00     66.310     0.7738 0.0000e+00
     67.000     8.5935    31.3357    9.78193  102.55517    24.3109 1.5473e+00     67.531     0.7594 0.0000e+00
     68.000     8.5930    31.3369    9.78548  102.59331    24.3121 1.5472e+00     68.482     0.7622 0.0000e+00
     69.000     8.5926    31.3380    9.78391  102.57705    24.3132 1.5474e+00     69.507     0.7780 0.0000e+00
     70.000     8.5927    31.3387    9.78323  102.57023    24.3137 1.5473e+00     70.601     0.7758 0.0000e+00
     71.000     8.5931    31.3383    9.78314  102.57087    24.3135 1.5470e+00     71.628     0.7460 0.0000e+00
     72.000     8.5934    31.3381    9.78426  102.58309    24.3133 1.5469e+00     72.607     0.7387 0.0000e+00
     73.000     8.5929    31.3379    9.78776  102.62088    24.3131 1.5473e+00     73.662     0.7376 0.0000e+00
     74.000     8.5930    31.3380    9.78465  102.58875    24.3132 1.5470e+00     74.662     0.7543 0.0000e+00
     75.000     8.5928    31.3382    9.78450  102.58831    24.3133 1.5472e+00     75.635     0.7557 0.0000e+00
     76.000     8.5929    31.3384    9.78774  102.62307    24.3135 1.5472e+00     76.683     0.7224 0.0000e+00
     77.000     8.5926    31.3385    9.78553  102.60148    24.3136 1.5470e+00     77.502     0.7500 0.0000e+00
     78.000     8.5925    31.3381    9.78175  102.56117    24.3133 1.5464e+00     78.527     0.7541 0.0000e+00
     79.000     8.5931    31.3385    9.77908  102.53385    24.3136 1.5471e+00     79.529     0.7388 0.0000e+00
     80.000     8.5932    31.3383    9.77894  102.53175    24.3135 1.5470e+00     80.471     0.8753 0.0000e+00
     81.000     8.5935    31.3378    9.77315  102.47195    24.3130 1.5471e+00     81.423     0.8538 0.0000e+00
     82.000     8.5943    31.3381    9.76992  102.43710    24.3132 1.5468e+00     82.296     0.9711 0.0000e+00
     83.000     8.5943    31.3376    9.77105  102.44707    24.3128 1.5466e+00     83.085     0.8996 0.0000e+00
     84.000     8.5947    31.3375    9.77339  102.47414    24.3125 1.5472e+00     83.936     0.8633 0.0000e+00
     85.000     8.5953    31.3375    9.77237  102.46270    24.3126 1.5468e+00     84.539     1.0319 0.0000e+00
     86.000     8.5962    31.3372    9.77742  102.51411    24.3122 1.5474e+00     85.333     0.9762 0.0000e+00
     85.000     8.5962    31.3358    9.76957  102.42870    24.3109 1.5468e+00     85.006     1.1286 0.0000e+00
     84.000     8.5963    31.3372    9.77112  102.44340    24.3122 1.5473e+00     84.036     1.1457 0.0000e+00
     83.000     8.5959    31.3376    9.76883  102.41964    24.3124 1.5470e+00     83.325     1.1905 0.0000e+00
     82.000     8.5953    31.3376    9.76806  102.41117    24.3124 1.5468e+00     82.384     1.2331 0.0000e+00
     81.000     8.5951    31.3379    9.76464  102.37586    24.3127 1.5469e+00     81.528     1.2480 0.0000e+00
     80.000     8.5951    31.3381    9.76334  102.36271    24.3130 1.5466e+00     80.646     1.2306 0.0000e+00
     79.000     8.5952    31.3380    9.76955  102.43098    24.3129 1.5466e+00     79.655     1.2653 0.0000e+00
     78.000     8.5943    31.3381    9.77111  102.44956    24.3130 1.5471e+00     78.734     1.2671 0.0000e+00
     77.000     8.5938    31.3384    9.77090  102.45554    24.3133 1.5467e+00     77.802     1.2169 0.0000e+00
     76.000     8.5935    31.3386    9.76749  102.42709    24.3136 1.5468e+00     76.601     1.2624 0.0000e+00
     75.000     8.5927    31.3392    9.76972  102.44414    24.3140 1.5468e+00     75.837     1.2449 0.0000e+00
     74.000     8.5930    31.3396    9.76886  102.44194    24.3145 1.5469e+00     74.672     1.3115 0.0000e+00
     73.000     8.5931    31.3393    9.76960  102.45491    24.3142 1.5465e+00     73.756     1.3052 0.0000e+00
     72.000     8.5934    31.3390    9.77231  102.47947    24.3140 1.5463e+00     72.686     1.3610 0.0000e+00
     71.000     8.5947    31.3386    9.77149  102.46745    24.3136 1.5467e+00     71.773     1.3678 0.0000e+00
     70.000     8.5967    31.3374    9.76924  102.43082    24.3125 1.5463e+00     70.689     1.3536 0.0000e+00
     69.000     8.6017    31.3357    9.76652  102.41503    24.3109 1.5466e+00     69.739     1.3500 0.0000e+00
     68.000     8.6043    31.3309    9.76680  102.41592    24.3064 1.5465e+00     68.678     1.3129 0.0000e+00
     67.000     8.6020    31.3287    9.76982  102.45814    24.3043 1.5464e+00     67.705     1.3388 0.0000e+00
     66.000     8.6096    31.3322    9.77604  102.53758    24.3075 1.5465e+00     66.642     1.3738 0.0000e+00
     65.000     8.6097    31.3262    9.76912  102.49600    24.3019 1.5466e+00     65.699     1.2375 0.0000e+00
     64.000     8.6073    31.3228    9.75968  102.39074    24.2988 1.5464e+00     64.630     1.1985 0.0000e+00
     63.000     8.5989    31.3253    9.76121  102.41347    24.3011 1.5467e+00     63.652     1.2002 0.0000e+00
     62.000     8.6041    31.3330    9.75963  102.40562    24.3083 1.5478e+00     62.667     1.1597 0.0000e+00
     61.000     8.6015    31.3279    9.75956  102.37808    24.3036 1.5490e+00     61.569     1.0322 0.0000e+00
     60.000     8.6073    31.3301    9.75899  102.36797    24.3057 1.5483e+00     60.648     0.9218 0.0000e+00
     59.000     8.6168    31.3245    9.76387  102.41980    24.3004 1.5479e+00     59.556     0.9417 0.0000e+00
     58.000     8.6334    31.3168    9.76562  102.44241    24.2932 1.5475e+00     58.617     0.9537 0.0000e+00
     57.000     8.6320    31.2993    9.76708  102.44282    24.2765 1.5475e+00     57.457     1.2425 0.0000e+00
     56.000     8.6360    31.3031    9.77653  102.53964    24.2801 1.5479e+00     56.576     1.1850 0.0000e+00
     55.000     8.6417    31.2990    9.77636  102.53809    24.2762 1.5400e+00     55.424     0.9616 0.0000e+00
     54.000     8.6261    31.2953    9.76337  102.40701    24.2726 1.5451e+00     54.549     0.8640 0.0000e+00
     53.000     8.6229    31.3091    9.76294  102.39638    24.2857 1.5485e+00     53.497     0.8091 0.0000e+00
     52.000     8.6236    31.3109    9.76734  102.44936    24.2875 1.5478e+00     52.553     0.8784 0.0000e+00
     51.000     8.6264    31.3101    9.77137  102.50691    24.2868 1.5492e+00     51.457     0.9253 0.0000e+00
     50.000     8.6185    31.3077    9.76809  102.48702    24.2846 1.5497e+00     50.499     0.8302 0.0000e+00
     49.000     8.6166    31.3143    9.75958  102.40192    24.2907 1.5510e+00     49.524     0.7693 0.0000e+00
     48.000     8.6167    31.3158    9.75786  102.40424    24.2923 1.5533e+00     48.495     0.8031 0.0000e+00
     47.000     8.6195    31.3159    9.76099  102.47814    24.2924 1.5554e+00     47.560     0.8971 0.0000e+00
     46.000     8.6156    31.3128    9.75609  102.43026    24.2895 1.5573e+00     46.420     0.8960 0.0000e+00
     45.000     8.6209    31.3166    9.75006  102.41565    24.2931 1.5592e+00     45.428     0.8998 0.0000e+00
     44.000     8.6315    31.3106    9.75408  102.48193    24.2874 1.5656e+00     44.416     0.8463 0.0000e+00
     43.000     8.6368    31.3024    9.74906  102.44863    24.2796 1.5732e+00     43.471     0.8734 0.0000e+00
     42.000     8.6433    31.2971    9.74606  102.52299    24.2746 1.5812e+00     42.364     0.7998 0.0000e+00
     41.000     8.6635    31.2923    9.74040  102.49121    24.2699 1.5921e+00     41.379     0.8683 0.0000e+00
     40.000     8.6778    31.2725    9.74157  102.50596    24.2512 1.6051e+00     40.338     0.9669 0.0000e+00
     39.000     8.6873    31.2612    9.74496  102.54003    24.2403 1.6212e+00     39.286     0.8161 0.0000e+00
     38.000     8.7142    31.2549    9.73822  102.46465    24.2342 1.6445e+00     38.427     0.8126 0.0000e+00
     37.000     8.7172    31.2275    9.73982  102.47071    24.2079 1.6674e+00     37.286     0.8071 0.0000e+00
     36.000     8.7458    31.2279    9.72980  102.36931    24.2084 1.7046e+00     36.354     0.8343 0.0000e+00
     35.000     8.7883    31.2067    9.73213  102.39951    24.1868 1.7470e+00     35.321     0.7724 0.0000e+00
     34.000     8.8000    31.1772    9.73027  102.38436    24.1577 1.7999e+00     34.263     0.7418 0.0000e+00
     33.000     8.8017    31.1702    9.72350  102.31684    24.1509 1.8654e+00     33.287     0.7636 0.0000e+00
     32.000     8.8011    31.1681    9.71767  102.26374    24.1490 1.9475e+00     32.272     0.7812 0.0000e+00
     31.000     8.7987    31.1661    9.72592  102.36489    24.1476 2.0530e+00     31.232     0.8129 0.0000e+00
     30.000     8.7974    31.1633    9.72505  102.36924    24.1457 2.1844e+00     30.283     0.7748 0.0000e+00
     29.000     8.7985    31.1624    9.72099  102.33733    24.1453 2.3508e+00     29.213     0.7530 0.0000e+00
     28.000     8.8019    31.1608    9.72271  102.36285    24.1438 2.5619e+00     28.216     0.8143 0.0000e+00
     27.000     8.8041    31.1565    9.72632  102.39985    24.1399 2.8173e+00     27.098     0.8704 0.0000e+00
     26.000     8.8050    31.1565    9.72502  102.37163    24.1397 3.1653e+00     26.208     0.7722 0.0000e+00
     25.000     8.8078    31.1575    9.72309  102.34918    24.1403 3.5822e+00     25.248     0.7485 0.0000e+00
     24.000     8.8140    31.1579    9.72243  102.34795    24.1402 4.1230e+00     24.139     0.7822 0.0000e+00
     23.000     8.8208    31.1546    9.71521  102.28174    24.1368 4.8115e+00     23.226     0.7874 0.0000e+00
     22.000     8.8251    31.1522    9.71281  102.27735    24.1338 5.6152e+00     22.114     0.8240 0.0000e+00
     21.000     8.8286    31.1530    9.71073  102.28102    24.1338 6.7329e+00     21.175     0.7875 0.0000e+00
     20.000     8.8319    31.1528    9.70841  102.27853    24.1330 8.0084e+00     20.104     0.8097 0.0000e+00
     19.000     8.8299    31.1515    9.70636  102.29024    24.1317 9.7526e+00     19.235     0.8266 0.0000e+00
     18.000     8.8281    31.1427    9.70391  102.31378    24.1249 1.1993e+01     18.113     0.7911 0.0000e+00
     17.000     8.8307    31.1334    9.70651  102.36679    24.1179 1.4854e+01     17.180     0.8295 0.0000e+00
     16.000     8.8362    31.1256    9.70889  102.43544    24.1114 1.8463e+01     16.135     0.8415 0.0000e+00
     15.000     8.8429    31.1164    9.70658  102.44056    24.1035 2.2915e+01     15.140     0.7918 0.0000e+00
     14.000     8.8537    31.1106    9.69465  102.33950    24.0981 2.8676e+01     14.198     0.7973 0.0000e+00
     13.000     8.8683    31.1007    9.68733  102.28366    24.0887 3.6081e+01     13.218     0.8012 0.0000e+00
     12.000     8.8813    31.0880    9.68354  102.31356    24.0763 4.5444e+01     12.075     0.8353 0.0000e+00
     11.000     8.8981    31.0844    9.68699  102.40274    24.0720 5.7247e+01     11.194     0.8146 0.0000e+00
     10.000     8.9299    31.0762    9.67788  102.47051    24.0619 7.1410e+01      9.841     0.7689 0.0000e+00
      9.000     8.9385    31.0697    9.67576  102.62696    24.0544 9.0333e+01      9.127     0.8077 0.0000e+00
      8.000     8.9688    31.0570    9.58862  101.76397    24.0422 1.1248e+02      8.068     0.8518 0.0000e+00
      7.000     8.9786    31.0295   10.04229  100.60496    24.0163 1.4062e+02      7.149     0.8206 0.0000e+00
      6.000     8.9942    31.0176   11.16377  100.40669    24.0046 1.8062e+02      6.125     0.8029 0.0000e+00
      5.000     9.0106    31.0086   11.31894  100.51465    23.9954 2.2051e+02      5.162     0.7097 0.0000e+00
      4.000     9.0472    31.0026   11.40458  100.60833    23.9882 2.5409e+02      4.232     0.6442 0.0000e+00
      3.000     9.0832    30.9865   11.40650  100.62683    23.9702 2.5982e+02      3.315     0.5746 0.0000e+00
      2.000     9.1591    30.9786   11.42766  100.59203    23.9605 2.6988e+02      2.477     0.4764 0.0000e+00
      1.000     9.2630    30.9722   11.42587  100.58603    23.9432 3.5390e+02      1.757     0.3751 0.0000e+00
