* Sea-Bird SBE19plus Data File:
* FileName = C:\data\otf\2007\ctd-07153.hex
* Software Version 1.55
* Temperature SN =  5061
* Conductivity SN =  5061
* System UpLoad Time = Aug 15 2007 17:45:26
* ds
* SeacatPlus V 1.6a  SERIAL NO. 5061    15 Aug 2007  15:31:53
* vbatt = 10.9, vlith =  8.7, ioper =  61.6 ma, ipump =  57.5 ma, 
* iext01 =  95.2 ma
* iext23 =  58.1 ma
* 
* status = not logging
* number of scans to average = 1
* samples = 153039, free = 288466, casts = 154
* mode = profile, minimum cond freq = 3000, pump delay = 60 sec
* autorun = no, ignore magnetic switch = no
* battery type = alkaline, battery cutoff =  7.3 volts
* pressure sensor = strain gauge, range = 870.0
* SBE 38 = no, Gas Tension Device = no
* Ext Volt 0 = yes, Ext Volt 1 = yes, Ext Volt 2 = yes, Ext Volt 3 = yes
* echo commands = yes
* output format = raw HEX
* S>
* 
* SeacatPlus V 1.6a  SERIAL NO. 5061    15 Aug 2007  15:32:18
* temperature:  05-oct-06
*     TA0 = 1.254184e-03
*     TA1 = 2.596730e-04
*     TA2 = 5.165612e-07
*     TA3 = 1.318931e-07
*     TOFFSET = 0.000000e+00
* conductivity:  05-oct-06
*     G = -9.978144e-01
*     H = 1.555200e-01
*     I = -4.839108e-04
*     J = 6.121100e-05
*     CF0 = 2.539936e+03
*     CPCOR = -9.570000e-08
*     CTCOR = 3.250000e-06
*     CSLOPE = 1.000000e+00
* pressure S/N = 2362539, range = 870 psia:  24-aug-06
*     PA0 = 2.171091e-01
*     PA1 = 2.647085e-03
*     PA2 = 1.419397e-11
*     PTCA0 = 5.242437e+05
*     PTCA1 = 7.545345e+00
*     PTCA2 = -1.835354e-01
*     PTCB0 = 2.537125e+01
*     PTCB1 = -1.750000e-03
*     PTCB2 = 0.000000e+00
*     PTEMPA0 = -5.753989e+01
*     PTEMPA1 = 5.235813e+01
*     PTEMPA2 = -4.015521e-02
*     POFFSET = 0.000000e+00
* volt 0: offset = -4.682842e-02, slope = 1.249147e+00
* volt 1: offset = -4.695158e-02, slope = 1.248145e+00
* volt 2: offset = -4.685263e-02, slope = 1.248783e+00
* volt 3: offset = -4.690316e-02, slope = 1.249508e+00
*     EXTFREQSF = 1.000002e+00
* dh
* cast 153 01 Aug 2007 10:14:44 samples 150596 to 151625, avg = 1, stop = mag switch
* S> 
# nquan = 10
# nvalues = 121                         
# units = specified
# name 0 = depSM: Depth [salt water, m]
# name 1 = tv290C: Temperature [ITS-90, deg C]
# name 2 = sal00: Salinity [PSU]
# name 3 = sbeox0Mg/L: Oxygen, SBE 43 [mg/l]
# name 4 = sbeox0PS: Oxygen, SBE 43 [% saturation]
# name 5 = sigma-t00: Density [sigma-t, Kg/m^3 ]
# name 6 = par: PAR/Irradiance, Biospherical/Licor
# name 7 = prdM: Pressure, Strain Gauge [db]
# name 8 = flECO-AFL: Fluorescence, Wetlab ECO-AFL/FL [mg/m^3]
# name 9 = flag: flag
# span 0 =      1.000,     63.000       
# span 1 =     8.9424,     8.9915       
# span 2 =    31.5390,    31.6447       
# span 3 =    7.79292,    9.40284       
# span 4 =   82.54480,   99.57541       
# span 5 =    24.4123,    24.4933       
# span 6 = 1.5514e+00, 1.2599e+02       
# span 7 =      1.089,     63.445       
# span 8 =     1.2580,     1.8536       
# span 9 = 0.0000e+00, 0.0000e+00       
# interval = meters: 1                  
# start_time = Aug 01 2007 10:14:44
# bad_flag = -9.990e-29
# sensor 0 = Frequency 0  temperature, 5061, 05-Oct-06
# sensor 1 = Frequency 1  conductivity, 5061, 05-Oct-06, cpcor = -9.5700e-08
# sensor 2 = Pressure Number
# sensor 3 = Extrnl Volt  0  irradiance (PAR), primary, 4751, 08/10/06
# sensor 4 = Extrnl Volt  1  Oxygen, SBE, primary, 1081, 10/24/06
# sensor 5 = Extrnl Volt  2  WET Labs, ECO_AFL
# sensor 6 = Extrnl Volt  3  userpoly 0, 0627, 10/11/06
# datcnv_date = Oct 15 2007 14:49:54, 5.37e
# datcnv_in = I:\bob d\OTF_GEM\2007\ctd-07153.hex I:\Willette\OTF\CTD\5061.con
# datcnv_skipover = 0
# filter_date = Oct 15 2007 15:02:44, 5.37e
# filter_in = I:\Willette\OTF\CTD\2007\CTD Data\ctd-07153.cnv
# filter_low_pass_tc_A = 1.000
# filter_low_pass_tc_B = 0.150
# filter_low_pass_A_vars = prdM
# filter_low_pass_B_vars =
# loopedit_date = Oct 15 2007 15:07:02, 5.37e
# loopedit_in = I:\Willette\OTF\CTD\2007\CTD Data\ctd-07153.cnv
# loopedit_minVelocity = 0.250                                                                                            
# loopedit_surfaceSoak: minDepth = 5.0, maxDepth = 20, useDeckPress = 1                                                   
# loopedit_excl_bad_scans = yes
# alignctd_date = Oct 15 2007 15:14:26, 5.37e
# alignctd_in = I:\Willette\OTF\CTD\2007\CTD Data\ctd-07153.cnv
# alignctd_adv = tv290C 0.500, sbeox0Mg/L 4.000, sbeox0PS 4.000                                                                                                                                                                      
# binavg_date = Oct 15 2007 15:18:54, 5.37e
# binavg_in = I:\Willette\OTF\CTD\2007\CTD Data\ctd-07153.cnv
# binavg_bintype = meters
# binavg_binsize = 1
# binavg_excl_bad_scans = yes
# binavg_skipover = 0
# binavg_surface_bin = no, min = 0.000, max = 0.000, value = 0.000
# file_type = ascii
*END*
      5.000     8.9915    31.6447    7.79292   82.54480    24.4933 3.5337e+01      5.132     1.5773 0.0000e+00
      6.000     8.9601    31.5755    7.84195   83.02144    24.4424 3.0426e+01      6.031     1.5357 0.0000e+00
      7.000     8.9685    31.6353    8.06263   85.37498    24.4897 2.6031e+01      7.093     1.5429 0.0000e+00
      8.000     8.9536    31.5753    8.10385   85.78938    24.4435 2.2422e+01      8.122     1.4814 0.0000e+00
      9.000     8.9517    31.6154    8.14297   86.21467    24.4764 1.9001e+01      9.034     1.4464 0.0000e+00
     10.000     8.9528    31.5907    8.30027   87.88188    24.4566 1.6577e+01     10.222     1.4648 0.0000e+00
     11.000     8.9490    31.5904    8.29292   87.80905    24.4571 1.4150e+01     11.087     1.5023 0.0000e+00
     12.000     8.9504    31.6149    8.32869   88.19376    24.4763 1.2065e+01     12.132     1.4608 0.0000e+00
     13.000     8.9489    31.6098    8.22783   87.11852    24.4722 1.0435e+01     13.146     1.4282 0.0000e+00
     14.000     8.9493    31.6227    8.15321   86.32748    24.4825 8.9798e+00     14.024     1.4609 0.0000e+00
     15.000     8.9513    31.6276    8.21988   87.03232    24.4860 7.7855e+00     15.176     1.5204 0.0000e+00
     16.000     8.9496    31.6172    8.38455   88.77228    24.4780 6.8333e+00     16.137     1.4085 0.0000e+00
     17.000     8.9498    31.6175    8.46625   89.63118    24.4783 5.9879e+00     17.223     1.4164 0.0000e+00
     18.000     8.9481    31.6159    8.43852   89.34134    24.4771 5.3113e+00     18.203     1.4291 0.0000e+00
     19.000     8.9479    31.6156    8.48049   89.78790    24.4771 4.7117e+00     19.179     1.4327 0.0000e+00
     20.000     8.9478    31.6022    8.50917   90.09143    24.4665 4.2112e+00     20.255     1.4343 0.0000e+00
     21.000     8.9472    31.6102    8.59876   91.03975    24.4730 3.7993e+00     21.154     1.4594 0.0000e+00
     22.000     8.9480    31.6151    8.68809   91.98288    24.4766 3.4369e+00     22.295     1.4334 0.0000e+00
     23.000     8.9471    31.6164    8.83372   93.51976    24.4777 3.1569e+00     23.205     1.4076 0.0000e+00
     24.000     8.9475    31.6182    8.94666   94.71470    24.4792 2.8960e+00     24.174     1.4177 0.0000e+00
     25.000     8.9464    31.6146    9.02732   95.56835    24.4764 2.6817e+00     25.227     1.4531 0.0000e+00
     26.000     8.9454    31.6116    9.08701   96.20059    24.4743 2.4996e+00     26.384     1.4055 0.0000e+00
     27.000     8.9453    31.6102    9.10887   96.43188    24.4732 2.3600e+00     27.196     1.3966 0.0000e+00
     28.000     8.9453    31.6076    9.13296   96.69000    24.4712 2.2268e+00     28.230     1.4047 0.0000e+00
     29.000     8.9455    31.6103    9.15697   96.94945    24.4733 2.1226e+00     29.289     1.4425 0.0000e+00
     30.000     8.9455    31.6084    9.17283   97.11438    24.4718 2.0313e+00     30.295     1.4111 0.0000e+00
     31.000     8.9458    31.6107    9.17890   97.17659    24.4735 1.9561e+00     31.298     1.3474 0.0000e+00
     32.000     8.9456    31.6193    9.18891   97.28419    24.4803 1.8926e+00     32.270     1.4043 0.0000e+00
     33.000     8.9453    31.6195    9.20174   97.42052    24.4804 1.8398e+00     33.305     1.3871 0.0000e+00
     34.000     8.9452    31.6150    9.21401   97.55081    24.4770 1.7929e+00     34.305     1.3818 0.0000e+00
     35.000     8.9454    31.6168    9.23157   97.73666    24.4784 1.7542e+00     35.413     1.4036 0.0000e+00
     36.000     8.9458    31.6177    9.23722   97.79911    24.4790 1.7245e+00     36.243     1.3686 0.0000e+00
     37.000     8.9462    31.6154    9.24175   97.84657    24.4772 1.6958e+00     37.382     1.4162 0.0000e+00
     38.000     8.9459    31.6160    9.24588   97.89084    24.4776 1.6746e+00     38.363     1.3999 0.0000e+00
     39.000     8.9458    31.6207    9.24841   97.92132    24.4814 1.6550e+00     39.332     1.4135 0.0000e+00
     40.000     8.9460    31.6202    9.24766   97.91343    24.4810 1.6383e+00     40.425     1.3734 0.0000e+00
     41.000     8.9460    31.6194    9.24608   97.89923    24.4803 1.6252e+00     41.369     1.3490 0.0000e+00
     42.000     8.9460    31.6264    9.24694   97.91055    24.4858 1.6133e+00     42.323     1.3708 0.0000e+00
     43.000     8.9462    31.6265    9.24652   97.90433    24.4859 1.6032e+00     43.529     1.3336 0.0000e+00
     44.000     8.9462    31.6295    9.25309   97.97588    24.4882 1.5959e+00     44.363     1.3324 0.0000e+00
     45.000     8.9464    31.6327    9.25125   97.95740    24.4907 1.5881e+00     45.401     1.3157 0.0000e+00
     46.000     8.9465    31.6292    9.24586   97.90170    24.4879 1.5819e+00     46.466     1.2931 0.0000e+00
     47.000     8.9465    31.6334    9.25114   97.95789    24.4913 1.5772e+00     47.478     1.2580 0.0000e+00
     48.000     8.9466    31.6344    9.25097   97.95633    24.4920 1.5728e+00     48.433     1.2970 0.0000e+00
     49.000     8.9471    31.6346    9.25613   98.01109    24.4920 1.5694e+00     49.490     1.2749 0.0000e+00
     50.000     8.9472    31.6345    9.25675   98.01777    24.4919 1.5668e+00     50.450     1.2627 0.0000e+00
     51.000     8.9473    31.6344    9.26920   98.15011    24.4919 1.5641e+00     51.490     1.3086 0.0000e+00
     52.000     8.9473    31.6347    9.27701   98.23301    24.4921 1.5620e+00     52.476     1.2835 0.0000e+00
     53.000     8.9477    31.6341    9.27948   98.25951    24.4916 1.5600e+00     53.532     1.2848 0.0000e+00
     54.000     8.9480    31.6333    9.27842   98.24752    24.4909 1.5587e+00     54.531     1.3408 0.0000e+00
     55.000     8.9479    31.6337    9.27727   98.23526    24.4912 1.5574e+00     55.476     1.2900 0.0000e+00
     56.000     8.9479    31.6343    9.27551   98.21738    24.4918 1.5559e+00     56.566     1.3071 0.0000e+00
     57.000     8.9477    31.6331    9.27482   98.21018    24.4908 1.5553e+00     57.574     1.3130 0.0000e+00
     58.000     8.9479    31.6335    9.28087   98.27329    24.4910 1.5543e+00     58.455     1.3539 0.0000e+00
     59.000     8.9482    31.6336    9.28416   98.30988    24.4912 1.5534e+00     59.566     1.2763 0.0000e+00
     60.000     8.9478    31.6333    9.28094   98.27608    24.4908 1.5532e+00     60.563     1.2885 0.0000e+00
     61.000     8.9484    31.6334    9.27961   98.26240    24.4909 1.5524e+00     61.537     1.2971 0.0000e+00
     62.000     8.9487    31.6332    9.28668   98.33705    24.4907 1.5525e+00     62.519     1.3076 0.0000e+00
     63.000     8.9491    31.6329    9.28192   98.28125    24.4903 1.5539e+00     63.445     1.3986 0.0000e+00
     62.000     8.9491    31.6331    9.28101   98.27641    24.4905 1.5517e+00     62.437     1.3494 0.0000e+00
     61.000     8.9489    31.6331    9.28076   98.27291    24.4906 1.5514e+00     61.545     1.3330 0.0000e+00
     60.000     8.9487    31.6330    9.27939   98.25777    24.4905 1.5527e+00     60.567     1.3922 0.0000e+00
     59.000     8.9481    31.6332    9.27757   98.23779    24.4908 1.5530e+00     59.552     1.3919 0.0000e+00
     58.000     8.9478    31.6336    9.27421   98.20221    24.4911 1.5537e+00     58.550     1.3392 0.0000e+00
     57.000     8.9474    31.6336    9.27417   98.20128    24.4912 1.5543e+00     57.559     1.3748 0.0000e+00
     56.000     8.9476    31.6332    9.27358   98.19366    24.4909 1.5551e+00     56.471     1.4345 0.0000e+00
     55.000     8.9475    31.6329    9.27203   98.17720    24.4906 1.5560e+00     55.575     1.3871 0.0000e+00
     54.000     8.9473    31.6323    9.27734   98.23350    24.4902 1.5576e+00     54.549     1.4167 0.0000e+00
     53.000     8.9472    31.6312    9.28318   98.29442    24.4893 1.5586e+00     53.548     1.3979 0.0000e+00
     52.000     8.9471    31.6317    9.28641   98.32761    24.4897 1.5607e+00     52.491     1.3628 0.0000e+00
     51.000     8.9471    31.6299    9.28473   98.31017    24.4884 1.5626e+00     51.524     1.4044 0.0000e+00
     50.000     8.9470    31.6297    9.27627   98.21859    24.4882 1.5654e+00     50.502     1.3584 0.0000e+00
     49.000     8.9469    31.6298    9.28769   98.33148    24.4883 1.5685e+00     49.460     1.4013 0.0000e+00
     48.000     8.9463    31.6198    9.29313   98.38581    24.4805 1.5721e+00     48.442     1.3888 0.0000e+00
     47.000     8.9462    31.6126    9.30278   98.48883    24.4749 1.5762e+00     47.449     1.4142 0.0000e+00
     46.000     8.9460    31.6131    9.30976   98.56219    24.4754 1.5816e+00     46.453     1.4508 0.0000e+00
     45.000     8.9459    31.6132    9.30633   98.52521    24.4755 1.5879e+00     45.433     1.4074 0.0000e+00
     44.000     8.9457    31.6129    9.30790   98.54592    24.4753 1.5955e+00     44.421     1.3727 0.0000e+00
     43.000     8.9456    31.6158    9.30866   98.56198    24.4775 1.6040e+00     43.378     1.4427 0.0000e+00
     42.000     8.9459    31.6265    9.29873   98.45736    24.4859 1.6142e+00     42.411     1.3905 0.0000e+00
     41.000     8.9461    31.6312    9.29381   98.40541    24.4895 1.6259e+00     41.362     1.3860 0.0000e+00
     40.000     8.9459    31.6317    9.28523   98.31485    24.4900 1.6404e+00     40.390     1.3944 0.0000e+00
     39.000     8.9462    31.6317    9.28980   98.36118    24.4899 1.6571e+00     39.330     1.4263 0.0000e+00
     38.000     8.9458    31.6315    9.29164   98.38050    24.4898 1.6779e+00     38.419     1.4150 0.0000e+00
     37.000     8.9451    31.6314    9.29402   98.40559    24.4898 1.7021e+00     37.241     1.3085 0.0000e+00
     36.000     8.9452    31.6311    9.29049   98.36913    24.4896 1.7313e+00     36.395     1.3776 0.0000e+00
     35.000     8.9455    31.6312    9.29536   98.42025    24.4897 1.7664e+00     35.289     1.3479 0.0000e+00
     34.000     8.9456    31.6312    9.29901   98.45261    24.4896 1.8076e+00     34.380     1.4191 0.0000e+00
     33.000     8.9454    31.6306    9.30018   98.46009    24.4891 1.8577e+00     33.282     1.3572 0.0000e+00
     32.000     8.9446    31.6190    9.30492   98.49573    24.4801 1.9167e+00     32.310     1.3907 0.0000e+00
     31.000     8.9441    31.6113    9.31969   98.65840    24.4743 1.9847e+00     31.300     1.4062 0.0000e+00
     30.000     8.9432    31.6002    9.32215   98.68435    24.4657 2.0651e+00     30.277     1.4495 0.0000e+00
     29.000     8.9433    31.6097    9.32960   98.76173    24.4731 2.1621e+00     29.270     1.4351 0.0000e+00
     28.000     8.9432    31.6053    9.32886   98.75700    24.4697 2.2827e+00     28.280     1.4064 0.0000e+00
     27.000     8.9433    31.6075    9.32657   98.73179    24.4714 2.4162e+00     27.246     1.4933 0.0000e+00
     26.000     8.9435    31.6094    9.33260   98.79404    24.4728 2.5784e+00     26.229     1.3871 0.0000e+00
     25.000     8.9435    31.6076    9.33442   98.81264    24.4715 2.7696e+00     25.265     1.3864 0.0000e+00
     24.000     8.9435    31.6059    9.33367   98.80306    24.4701 2.9968e+00     24.137     1.4694 0.0000e+00
     23.000     8.9432    31.6048    9.33362   98.80286    24.4693 3.2624e+00     23.224     1.4147 0.0000e+00
     22.000     8.9430    31.6040    9.32715   98.73349    24.4687 3.5723e+00     22.242     1.4068 0.0000e+00
     21.000     8.9430    31.6045    9.32571   98.71670    24.4691 3.9522e+00     21.145     1.4966 0.0000e+00
     20.000     8.9429    31.6032    9.32580   98.72114    24.4681 4.3962e+00     20.188     1.4764 0.0000e+00
     19.000     8.9426    31.6017    9.32294   98.69400    24.4670 4.9093e+00     19.152     1.4593 0.0000e+00
     18.000     8.9430    31.6047    9.32143   98.67915    24.4693 5.5442e+00     18.199     1.4314 0.0000e+00
     17.000     8.9434    31.6087    9.32535   98.72069    24.4723 6.2759e+00     17.108     1.4130 0.0000e+00
     16.000     8.9436    31.6102    9.32320   98.69621    24.4735 7.1445e+00     16.188     1.3617 0.0000e+00
     15.000     8.9436    31.6107    9.32332   98.69396    24.4739 8.1855e+00     15.135     1.4592 0.0000e+00
     14.000     8.9434    31.6097    9.32852   98.74792    24.4731 9.3643e+00     14.065     1.4643 0.0000e+00
     13.000     8.9431    31.6059    9.33043   98.76924    24.4701 1.0834e+01     13.210     1.4615 0.0000e+00
     12.000     8.9424    31.6045    9.33464   98.81426    24.4692 1.2623e+01     12.086     1.3818 0.0000e+00
     11.000     8.9427    31.6055    9.33757   98.84383    24.4699 1.4827e+01     11.074     1.4237 0.0000e+00
     10.000     8.9426    31.6060    9.34070   98.86936    24.4704 1.7289e+01     10.109     1.3896 0.0000e+00
      9.000     8.9428    31.6063    9.33948   98.85075    24.4706 1.9730e+01      9.033     1.4904 0.0000e+00
      8.000     8.9444    31.5914    9.34497   98.90854    24.4587 2.3380e+01      8.091     1.4382 0.0000e+00
      7.000     8.9460    31.5786    9.36626   99.13359    24.4485 2.5772e+01      7.049     1.5287 0.0000e+00
      6.000     8.9483    31.5653    9.37682   99.25283    24.4377 3.0770e+01      6.076     1.5279 0.0000e+00
      5.000     8.9495    31.5587    9.37304   99.23045    24.4323 3.5669e+01      4.977     1.4761 0.0000e+00
      4.000     8.9542    31.5527    9.38895   99.42169    24.4271 4.2110e+01      4.063     1.5739 0.0000e+00
      3.000     8.9612    31.5478    9.40284   99.57541    24.4224 4.8885e+01      2.981     1.6305 0.0000e+00
      2.000     8.9737    31.5437    9.36070   99.12483    24.4174 5.7156e+01      2.086     1.7515 0.0000e+00
      1.000     8.9794    31.5390    9.26691   98.13834    24.4123 1.2599e+02      1.089     1.8536 0.0000e+00
