* Sea-Bird SBE19plus Data File:
* FileName = C:\data\otf\2007\ctd-07042.hex
* Software Version 1.55
* Temperature SN =  5061
* Conductivity SN =  5061
* System UpLoad Time = Aug 15 2007 16:07:58
* ds
* SeacatPlus V 1.6a  SERIAL NO. 5061    15 Aug 2007  15:31:53
* vbatt = 10.9, vlith =  8.7, ioper =  61.6 ma, ipump =  57.5 ma, 
* iext01 =  95.2 ma
* iext23 =  58.1 ma
* 
* status = not logging
* number of scans to average = 1
* samples = 153039, free = 288466, casts = 154
* mode = profile, minimum cond freq = 3000, pump delay = 60 sec
* autorun = no, ignore magnetic switch = no
* battery type = alkaline, battery cutoff =  7.3 volts
* pressure sensor = strain gauge, range = 870.0
* SBE 38 = no, Gas Tension Device = no
* Ext Volt 0 = yes, Ext Volt 1 = yes, Ext Volt 2 = yes, Ext Volt 3 = yes
* echo commands = yes
* output format = raw HEX
* S>
* 
* SeacatPlus V 1.6a  SERIAL NO. 5061    15 Aug 2007  15:32:18
* temperature:  05-oct-06
*     TA0 = 1.254184e-03
*     TA1 = 2.596730e-04
*     TA2 = 5.165612e-07
*     TA3 = 1.318931e-07
*     TOFFSET = 0.000000e+00
* conductivity:  05-oct-06
*     G = -9.978144e-01
*     H = 1.555200e-01
*     I = -4.839108e-04
*     J = 6.121100e-05
*     CF0 = 2.539936e+03
*     CPCOR = -9.570000e-08
*     CTCOR = 3.250000e-06
*     CSLOPE = 1.000000e+00
* pressure S/N = 2362539, range = 870 psia:  24-aug-06
*     PA0 = 2.171091e-01
*     PA1 = 2.647085e-03
*     PA2 = 1.419397e-11
*     PTCA0 = 5.242437e+05
*     PTCA1 = 7.545345e+00
*     PTCA2 = -1.835354e-01
*     PTCB0 = 2.537125e+01
*     PTCB1 = -1.750000e-03
*     PTCB2 = 0.000000e+00
*     PTEMPA0 = -5.753989e+01
*     PTEMPA1 = 5.235813e+01
*     PTEMPA2 = -4.015521e-02
*     POFFSET = 0.000000e+00
* volt 0: offset = -4.682842e-02, slope = 1.249147e+00
* volt 1: offset = -4.695158e-02, slope = 1.248145e+00
* volt 2: offset = -4.685263e-02, slope = 1.248783e+00
* volt 3: offset = -4.690316e-02, slope = 1.249508e+00
*     EXTFREQSF = 1.000002e+00
* dh
* cast  42 09 Jul 2007 11:11:33 samples 40569 to 40879, avg = 4, stop = mag switch
* S> 
# nquan = 10
# nvalues = 166                         
# units = specified
# name 0 = depSM: Depth [salt water, m]
# name 1 = tv290C: Temperature [ITS-90, deg C]
# name 2 = sal00: Salinity [PSU]
# name 3 = sbeox0Mg/L: Oxygen, SBE 43 [mg/l]
# name 4 = sbeox0PS: Oxygen, SBE 43 [% saturation]
# name 5 = sigma-t00: Density [sigma-t, Kg/m^3 ]
# name 6 = par: PAR/Irradiance, Biospherical/Licor
# name 7 = prdM: Pressure, Strain Gauge [db]
# name 8 = flECO-AFL: Fluorescence, Wetlab ECO-AFL/FL [mg/m^3]
# name 9 = flag: flag
# span 0 =      1.000,     85.000       
# span 1 =     8.0616,     9.1049       
# span 2 =    30.7380,    31.3950       
# span 3 =    8.49899,    9.91502       
# span 4 =   88.36349,  103.16897       
# span 5 =    23.7737,    24.4299       
# span 6 = 1.5464e+00, 7.7809e+02       
# span 7 =      2.417,     84.974       
# span 8 =     0.3690,     0.7148       
# span 9 = 0.0000e+00, 0.0000e+00       
# interval = meters: 1                  
# start_time = Jul 09 2007 11:11:33
# bad_flag = -9.990e-29
# sensor 0 = Frequency 0  temperature, 5061, 05-Oct-06
# sensor 1 = Frequency 1  conductivity, 5061, 05-Oct-06, cpcor = -9.5700e-08
# sensor 2 = Pressure Number
# sensor 3 = Extrnl Volt  0  irradiance (PAR), primary, 4751, 08/10/06
# sensor 4 = Extrnl Volt  1  Oxygen, SBE, primary, 1081, 10/24/06
# sensor 5 = Extrnl Volt  2  WET Labs, ECO_AFL
# sensor 6 = Extrnl Volt  3  userpoly 0, 0627, 10/11/06
# datcnv_date = Oct 15 2007 14:49:44, 5.37e
# datcnv_in = I:\bob d\OTF_GEM\2007\ctd-07042.hex I:\Willette\OTF\CTD\5061.con
# datcnv_skipover = 0
# filter_date = Oct 15 2007 15:02:24, 5.37e
# filter_in = I:\Willette\OTF\CTD\2007\CTD Data\ctd-07042.cnv
# filter_low_pass_tc_A = 1.000
# filter_low_pass_tc_B = 0.150
# filter_low_pass_A_vars = prdM
# filter_low_pass_B_vars =
# loopedit_date = Oct 15 2007 15:06:46, 5.37e
# loopedit_in = I:\Willette\OTF\CTD\2007\CTD Data\ctd-07042.cnv
# loopedit_minVelocity = 0.250                                                                                            
# loopedit_surfaceSoak: minDepth = 5.0, maxDepth = 20, useDeckPress = 1                                                   
# loopedit_excl_bad_scans = yes
# alignctd_date = Oct 15 2007 15:14:14, 5.37e
# alignctd_in = I:\Willette\OTF\CTD\2007\CTD Data\ctd-07042.cnv
# alignctd_adv = tv290C 0.500, sbeox0Mg/L 4.000, sbeox0PS 4.000                                                                                                                                                                      
# binavg_date = Oct 15 2007 15:18:43, 5.37e
# binavg_in = I:\Willette\OTF\CTD\2007\CTD Data\ctd-07042.cnv
# binavg_bintype = meters
# binavg_binsize = 1
# binavg_excl_bad_scans = yes
# binavg_skipover = 0
# binavg_surface_bin = no, min = 0.000, max = 0.000, value = 0.000
# file_type = ascii
*END*
      4.000     8.8918    30.7877    8.60356   89.80163    23.8065 3.5195e+02      4.462     0.4939 0.0000e+00
      5.000     9.0295    30.9056    8.56261   89.30581    23.9190 2.8322e+02      5.213     0.5403 0.0000e+00
      6.000     8.8073    30.9622    8.66496   90.27424    23.9664 2.3657e+02      6.442     0.5653 0.0000e+00
      7.000     8.7595    31.1006    8.59275   89.42185    24.0956 1.9698e+02      7.466     0.6019 0.0000e+00
      8.000     8.7395    31.0627    8.49899   88.36349    24.0694 1.5394e+02      8.606     0.7148 0.0000e+00
      9.000     8.7188    31.0821    8.54640   88.86335    24.0901 1.3033e+02      9.116     0.6678 0.0000e+00
     10.000     8.6001    31.1054    8.54747   88.86714    24.1092 1.0832e+02      9.886     0.6715 0.0000e+00
     11.000     8.5884    31.1561    8.63093   89.70222    24.1594 8.9529e+01     10.801     0.6838 0.0000e+00
     12.000     8.5863    31.2179    8.68171   90.20118    24.2194 7.3396e+01     12.073     0.6353 0.0000e+00
     13.000     8.4867    31.2493    8.86688   92.24818    24.2470 6.2021e+01     13.006     0.5862 0.0000e+00
     14.000     8.3880    31.2042    8.79217   91.37917    24.2221 5.2091e+01     14.171     0.5537 0.0000e+00
     15.000     8.3418    31.2867    8.84158   91.87272    24.3037 4.3314e+01     15.292     0.5027 0.0000e+00
     16.000     8.3045    31.2951    8.74157   90.80677    24.3135 3.6915e+01     16.196     0.5109 0.0000e+00
     17.000     8.2496    31.3099    8.75487   90.94992    24.3321 3.1312e+01     17.291     0.4863 0.0000e+00
     18.000     8.2283    31.3207    8.95540   92.99944    24.3472 2.6573e+01     18.280     0.4413 0.0000e+00
     19.000     8.2192    31.3521    9.26652   96.23114    24.3768 2.2596e+01     19.263     0.4463 0.0000e+00
     20.000     8.2065    31.3400    9.44555   98.08527    24.3682 1.9293e+01     20.184     0.4414 0.0000e+00
     21.000     8.1992    31.3616    9.55414   99.21423    24.3880 1.6334e+01     21.154     0.4339 0.0000e+00
     22.000     8.2329    31.3455    9.61126   99.78895    24.3763 1.4179e+01     22.165     0.4347 0.0000e+00
     23.000     8.2269    31.3950    9.64631  100.14024    24.4148 1.2157e+01     23.023     0.4428 0.0000e+00
     24.000     8.1963    31.3286    9.68039  100.48972    24.3570 1.0487e+01     24.222     0.4098 0.0000e+00
     25.000     8.1932    31.3744    9.69958  100.68646    24.3986 9.1158e+00     25.066     0.4045 0.0000e+00
     26.000     8.1889    31.3496    9.72197  100.92161    24.3805 7.9072e+00     26.260     0.4266 0.0000e+00
     27.000     8.1874    31.3432    9.73844  101.09613    24.3764 6.9352e+00     27.184     0.4256 0.0000e+00
     28.000     8.1806    31.3453    9.75755  101.29409    24.3779 6.0673e+00     28.443     0.4020 0.0000e+00
     29.000     8.1793    31.3135    9.77638  101.47759    24.3546 5.3967e+00     29.371     0.4287 0.0000e+00
     30.000     8.1792    31.3143    9.78756  101.59089    24.3546 4.7863e+00     30.254     0.4287 0.0000e+00
     31.000     8.1702    31.3172    9.78935  101.61505    24.3576 4.2618e+00     31.577     0.4286 0.0000e+00
     32.000     8.1670    31.3155    9.79285  101.65283    24.3563 3.8707e+00     32.237     0.4283 0.0000e+00
     33.000     8.1613    31.3165    9.80432  101.76828    24.3582 3.4976e+00     33.555     0.4132 0.0000e+00
     34.000     8.1609    31.3235    9.80149  101.74364    24.3647 3.2104e+00     34.339     0.4152 0.0000e+00
     35.000     8.1609    31.3247    9.80920  101.82388    24.3658 2.9594e+00     35.357     0.4219 0.0000e+00
     36.000     8.1625    31.3258    9.82094  101.94232    24.3667 2.7379e+00     36.325     0.4246 0.0000e+00
     37.000     8.1636    31.3258    9.82688  102.00782    24.3665 2.5572e+00     37.449     0.4350 0.0000e+00
     38.000     8.1608    31.3266    9.82990  102.03557    24.3670 2.3984e+00     38.291     0.4138 0.0000e+00
     39.000     8.1570    31.3272    9.83578  102.09764    24.3676 2.2660e+00     39.331     0.4174 0.0000e+00
     40.000     8.1569    31.3263    9.83979  102.14001    24.3674 2.1584e+00     40.156     0.4476 0.0000e+00
     41.000     8.1575    31.3263    9.84683  102.21515    24.3677 2.0598e+00     41.183     0.4394 0.0000e+00
     42.000     8.1577    31.3305    9.84998  102.24319    24.3708 1.9869e+00     42.154     0.4018 0.0000e+00
     43.000     8.1567    31.3340    9.85493  102.27516    24.3736 1.9141e+00     43.186     0.4180 0.0000e+00
     44.000     8.1582    31.3335    9.85030  102.23313    24.3732 1.8628e+00     44.192     0.4072 0.0000e+00
     45.000     8.1560    31.3346    9.85566  102.27006    24.3739 1.8128e+00     45.531     0.4090 0.0000e+00
     46.000     8.1578    31.3350    9.85482  102.26935    24.3746 1.7736e+00     46.472     0.4343 0.0000e+00
     47.000     8.1578    31.3318    9.84719  102.20014    24.3719 1.7400e+00     47.757     0.4319 0.0000e+00
     48.000     8.1582    31.3302    9.86070  102.33495    24.3706 1.7088e+00     48.585     0.4324 0.0000e+00
     49.000     8.1588    31.3311    9.86291  102.34466    24.3712 1.6849e+00     49.627     0.4196 0.0000e+00
     50.000     8.1579    31.3324    9.86575  102.36250    24.3723 1.6638e+00     50.452     0.3955 0.0000e+00
     51.000     8.1512    31.3301    9.86469  102.34878    24.3704 1.6464e+00     51.690     0.3775 0.0000e+00
     52.000     8.1535    31.3198    9.87008  102.36923    24.3629 1.6311e+00     52.591     0.4194 0.0000e+00
     53.000     8.1510    31.3258    9.87285  102.38725    24.3681 1.6178e+00     53.658     0.4112 0.0000e+00
     54.000     8.1419    31.3229    9.87655  102.42719    24.3653 1.6058e+00     54.790     0.3863 0.0000e+00
     55.000     8.1492    31.3241    9.88174  102.47402    24.3676 1.5969e+00     55.832     0.4112 0.0000e+00
     56.000     8.1544    31.3269    9.88149  102.45804    24.3696 1.5890e+00     56.775     0.4553 0.0000e+00
     57.000     8.1513    31.3255    9.87835  102.39794    24.3677 1.5821e+00     57.797     0.4041 0.0000e+00
     58.000     8.1490    31.3244    9.88147  102.42279    24.3668 1.5772e+00     58.684     0.4369 0.0000e+00
     59.000     8.1423    31.3246    9.88745  102.48161    24.3671 1.5723e+00     59.627     0.4494 0.0000e+00
     60.000     8.1362    31.3256    9.89670  102.56690    24.3685 1.5683e+00     60.859     0.4177 0.0000e+00
     61.000     8.1396    31.3300    9.89633  102.55835    24.3730 1.5652e+00     61.492     0.4468 0.0000e+00
     62.000     8.1276    31.3324    9.89525  102.54150    24.3750 1.5622e+00     62.539     0.4414 0.0000e+00
     63.000     8.1169    31.3330    9.90099  102.59465    24.3760 1.5599e+00     63.555     0.4173 0.0000e+00
     64.000     8.1130    31.3423    9.90526  102.63567    24.3853 1.5577e+00     64.539     0.4104 0.0000e+00
     65.000     8.1135    31.3457    9.90600  102.64328    24.3889 1.5558e+00     65.350     0.4403 0.0000e+00
     66.000     8.1101    31.3479    9.90317  102.61415    24.3908 1.5540e+00     66.635     0.4280 0.0000e+00
     67.000     8.1051    31.3483    9.90494  102.63031    24.3913 1.5529e+00     67.425     0.4141 0.0000e+00
     68.000     8.0916    31.3513    9.91034  102.68535    24.3943 1.5517e+00     68.525     0.4259 0.0000e+00
     69.000     8.0840    31.3606    9.91129  102.69550    24.4033 1.5509e+00     69.599     0.4072 0.0000e+00
     70.000     8.0822    31.3673    9.91263  102.70715    24.4100 1.5503e+00     70.597     0.4143 0.0000e+00
     71.000     8.0766    31.3693    9.91108  102.69332    24.4119 1.5495e+00     71.643     0.4378 0.0000e+00
     72.000     8.0718    31.3726    9.91237  102.70529    24.4150 1.5486e+00     72.577     0.4414 0.0000e+00
     73.000     8.0698    31.3778    9.91502  102.73438    24.4199 1.5485e+00     73.633     0.4408 0.0000e+00
     74.000     8.0659    31.3807    9.90844  102.66737    24.4227 1.5482e+00     74.574     0.4576 0.0000e+00
     75.000     8.0651    31.3833    9.91162  102.69899    24.4252 1.5481e+00     75.557     0.4753 0.0000e+00
     76.000     8.0651    31.3847    9.91184  102.69715    24.4266 1.5474e+00     76.699     0.4739 0.0000e+00
     77.000     8.0641    31.3850    9.90750  102.65153    24.4268 1.5474e+00     77.514     0.4770 0.0000e+00
     78.000     8.0617    31.3844    9.89355  102.50673    24.4262 1.5469e+00     78.661     0.5437 0.0000e+00
     79.000     8.0652    31.3860    9.89285  102.49925    24.4280 1.5473e+00     79.486     0.4506 0.0000e+00
     80.000     8.0630    31.3865    9.90458  102.62100    24.4283 1.5469e+00     80.400     0.4967 0.0000e+00
     81.000     8.0637    31.3868    9.90910  102.66835    24.4285 1.5469e+00     81.147     0.4917 0.0000e+00
     82.000     8.0628    31.3868    9.90720  102.65182    24.4284 1.5468e+00     82.366     0.5488 0.0000e+00
     83.000     8.0640    31.3870    9.90523  102.63208    24.4286 1.5470e+00     83.019     0.4994 0.0000e+00
     84.000     8.0621    31.3861    9.90413  102.62198    24.4278 1.5468e+00     84.084     0.5159 0.0000e+00
     85.000     8.0616    31.3881    9.89411  102.51825    24.4299 1.5464e+00     84.974     0.4926 0.0000e+00
     84.000     8.0639    31.3872    9.88976  102.47484    24.4288 1.5469e+00     84.085     0.5584 0.0000e+00
     83.000     8.0634    31.3865    9.89461  102.52424    24.4281 1.5475e+00     83.279     0.5551 0.0000e+00
     82.000     8.0636    31.3865    9.89126  102.49167    24.4283 1.5470e+00     82.465     0.5016 0.0000e+00
     81.000     8.0631    31.3874    9.89037  102.48475    24.4290 1.5464e+00     81.505     0.4774 0.0000e+00
     80.000     8.0636    31.3863    9.89555  102.54285    24.4281 1.5468e+00     80.650     0.5298 0.0000e+00
     79.000     8.0643    31.3862    9.89877  102.57961    24.4279 1.5467e+00     79.654     0.5191 0.0000e+00
     78.000     8.0645    31.3862    9.89929  102.59475    24.4278 1.5468e+00     78.760     0.5074 0.0000e+00
     77.000     8.0646    31.3856    9.89869  102.58775    24.4273 1.5469e+00     77.782     0.5293 0.0000e+00
     76.000     8.0644    31.3854    9.89395  102.54524    24.4272 1.5472e+00     76.707     0.4851 0.0000e+00
     75.000     8.0647    31.3857    9.89347  102.55788    24.4274 1.5470e+00     75.813     0.4954 0.0000e+00
     74.000     8.0669    31.3852    9.89081  102.53957    24.4270 1.5476e+00     74.637     0.4994 0.0000e+00
     73.000     8.0687    31.3839    9.88822  102.51868    24.4257 1.5478e+00     73.775     0.5214 0.0000e+00
     72.000     8.0712    31.3818    9.89063  102.54854    24.4238 1.5481e+00     72.691     0.4762 0.0000e+00
     71.000     8.0758    31.3798    9.88900  102.53345    24.4218 1.5491e+00     71.650     0.6112 0.0000e+00
     70.000     8.0771    31.3755    9.88727  102.53293    24.4178 1.5496e+00     70.599     0.4666 0.0000e+00
     69.000     8.0809    31.3751    9.88913  102.58457    24.4174 1.5502e+00     69.650     0.4792 0.0000e+00
     68.000     8.0912    31.3716    9.88299  102.56775    24.4141 1.5511e+00     68.631     0.4648 0.0000e+00
     67.000     8.0941    31.3642    9.87647  102.51077    24.4069 1.5520e+00     67.685     0.4984 0.0000e+00
     66.000     8.0983    31.3608    9.88247  102.57189    24.4036 1.5532e+00     66.554     0.5096 0.0000e+00
     65.000     8.0997    31.3581    9.87469  102.49135    24.4011 1.5547e+00     65.537     0.4757 0.0000e+00
     64.000     8.1026    31.3561    9.88034  102.55073    24.3991 1.5563e+00     64.547     0.4769 0.0000e+00
     63.000     8.1076    31.3562    9.88039  102.55150    24.3991 1.5589e+00     63.501     0.4396 0.0000e+00
     62.000     8.1204    31.3529    9.87069  102.45246    24.3957 1.5612e+00     62.617     0.4408 0.0000e+00
     61.000     8.1523    31.3453    9.85662  102.30748    24.3875 1.5643e+00     61.222     0.4422 0.0000e+00
     60.000     8.1520    31.3364    9.86175  102.35811    24.3781 1.5678e+00     60.576     0.4308 0.0000e+00
     59.000     8.1541    31.3320    9.87150  102.45828    24.3730 1.5718e+00     59.580     0.4188 0.0000e+00
     58.000     8.1544    31.3295    9.87471  102.49282    24.3705 1.5764e+00     58.524     0.4393 0.0000e+00
     57.000     8.1546    31.3278    9.87118  102.45465    24.3692 1.5822e+00     57.508     0.4396 0.0000e+00
     56.000     8.1554    31.3272    9.87461  102.49783    24.3687 1.5883e+00     56.384     0.4511 0.0000e+00
     55.000     8.1551    31.3273    9.87688  102.51902    24.3687 1.5962e+00     55.482     0.4495 0.0000e+00
     54.000     8.1558    31.3275    9.87840  102.53350    24.3688 1.6052e+00     54.383     0.4420 0.0000e+00
     53.000     8.1560    31.3279    9.86327  102.37867    24.3692 1.6144e+00     53.245     0.3971 0.0000e+00
     52.000     8.1552    31.3283    9.87103  102.46001    24.3694 1.6276e+00     52.374     0.4106 0.0000e+00
     51.000 -9.990e-29 -9.990e-29 -9.990e-29 -9.990e-29 -9.990e-29 -9.990e-29 -9.990e-29 -9.990e-29 -9.990e-29
     50.000     8.1552    31.3263    9.87266  102.47552    24.3679 1.6557e+00     50.690     0.4091 0.0000e+00
     49.000     8.1544    31.3267    9.87129  102.45910    24.3681 1.6810e+00     49.655     0.3949 0.0000e+00
     48.000     8.1560    31.3260    9.87127  102.45780    24.3677 1.7085e+00     48.299     0.4310 0.0000e+00
     47.000     8.1567    31.3282    9.87010  102.44402    24.3694 1.7348e+00     47.527     0.4177 0.0000e+00
     46.000     8.1564    31.3294    9.86288  102.37108    24.3701 1.7726e+00     46.596     0.4481 0.0000e+00
     45.000     8.1564    31.3272    9.85697  102.31107    24.3684 1.8128e+00     45.424     0.4181 0.0000e+00
     44.000     8.1573    31.3267    9.86587  102.40362    24.3680 1.8634e+00     44.555     0.4311 0.0000e+00
     43.000     8.1576    31.3272    9.86745  102.42392    24.3683 1.9224e+00     43.486     0.4481 0.0000e+00
     42.000     8.1570    31.3268    9.86381  102.38607    24.3679 1.9924e+00     42.459     0.4377 0.0000e+00
     41.000     8.1569    31.3274    9.86091  102.35232    24.3686 2.0703e+00     41.162     0.4358 0.0000e+00
     40.000     8.1554    31.3273    9.86663  102.41231    24.3685 2.1689e+00     40.351     0.4344 0.0000e+00
     39.000     8.1549    31.3286    9.86752  102.42408    24.3697 2.2780e+00     39.332     0.4237 0.0000e+00
     38.000     8.1558    31.3276    9.86720  102.42287    24.3689 2.4183e+00     38.398     0.4219 0.0000e+00
     37.000     8.1572    31.3264    9.85332  102.27718    24.3680 2.5649e+00     36.942     0.4170 0.0000e+00
     36.000     8.1570    31.3255    9.85983  102.33561    24.3671 2.7566e+00     36.464     0.4261 0.0000e+00
     35.000     8.1595    31.3247    9.84956  102.22128    24.3663 2.9800e+00     35.267     0.4220 0.0000e+00
     34.000     8.1593    31.3222    9.83634  102.08769    24.3641 3.2548e+00     34.294     0.4314 0.0000e+00
     33.000     8.1580    31.3222    9.83252  102.05234    24.3640 3.5646e+00     33.387     0.4443 0.0000e+00
     32.000     8.1570    31.3236    9.84114  102.14810    24.3654 3.9410e+00     32.290     0.4579 0.0000e+00
     31.000     8.1581    31.3257    9.84195  102.15773    24.3673 4.3816e+00     31.422     0.4886 0.0000e+00
     30.000     8.1610    31.3234    9.84600  102.20352    24.3652 4.9196e+00     30.260     0.4652 0.0000e+00
     29.000     8.1640    31.3211    9.83757  102.12430    24.3630 5.5009e+00     29.385     0.4804 0.0000e+00
     28.000     8.1607    31.3123    9.83521  102.12069    24.3558 6.3356e+00     28.366     0.3978 0.0000e+00
     27.000     8.1569    31.3096    9.83807  102.17843    24.3538 7.3028e+00     27.584     0.4146 0.0000e+00
     26.000     8.1572    31.3068    9.83755  102.19943    24.3528 8.4642e+00     25.937     0.3969 0.0000e+00
     25.000     8.1593    31.3090    9.83471  102.24880    24.3540 9.8672e+00     25.338     0.4151 0.0000e+00
     24.000     8.1620    31.3095    9.84432  102.38263    24.3541 1.1464e+01     24.298     0.4068 0.0000e+00
     23.000     8.1625    31.3093    9.84230  102.39453    24.3536 1.3503e+01     23.267     0.4501 0.0000e+00
     22.000     8.1663    31.3089    9.84119  102.43116    24.3532 1.5772e+01     22.280     0.3923 0.0000e+00
     21.000     8.1709    31.3079    9.84959  102.60084    24.3517 1.8484e+01     21.038     0.4322 0.0000e+00
     20.000     8.1879    31.3091    9.84232  102.63547    24.3516 2.1709e+01     20.207     0.4508 0.0000e+00
     19.000     8.2007    31.3033    9.82056  102.53321    24.3446 2.5227e+01     19.150     0.4290 0.0000e+00
     18.000     8.2412    31.3072    9.80820  102.50225    24.3469 2.9889e+01     18.233     0.4275 0.0000e+00
     17.000     8.2540    31.2903    9.81778  102.81733    24.3269 3.5367e+01     17.153     0.4503 0.0000e+00
     16.000     8.2726    31.2851    9.80884  102.96454    24.3210 4.1752e+01     15.953     0.4721 0.0000e+00
     15.000     8.2943    31.2774    9.79692  102.94408    24.3125 4.9947e+01     15.047     0.4911 0.0000e+00
     14.000     8.3303    31.2687    9.78678  102.91761    24.3033 5.9384e+01     14.145     0.4991 0.0000e+00
     13.000     8.3834    31.2571    9.77082  102.81581    24.2894 7.1913e+01     13.061     0.4910 0.0000e+00
     12.000     8.4444    31.2186    9.77393  102.86873    24.2490 8.5229e+01     11.858     0.6072 0.0000e+00
     11.000     8.4875    31.2015    9.77142  103.07273    24.2299 1.0570e+02     11.009     0.5918 0.0000e+00
     10.000     8.5731    31.1882    9.76832  103.16897    24.2153 1.2852e+02     10.184     0.5703 0.0000e+00
      9.000     8.6338    31.1486    9.70694  102.47827    24.1676 1.5761e+02      8.934     0.6000 0.0000e+00
      8.000     8.7325    31.1342 -9.990e-29 -9.990e-29    24.1525 1.9012e+02      8.163     0.5901 0.0000e+00
      7.000     8.7852    31.0922 -9.990e-29 -9.990e-29    24.1008 2.3406e+02      7.033     0.6352 0.0000e+00
      6.000     8.8173    31.0610 -9.990e-29 -9.990e-29    24.0707 2.8866e+02      6.249     0.5721 0.0000e+00
      5.000     8.8578    31.0178 -9.990e-29 -9.990e-29    24.0282 3.5743e+02      5.042     0.5009 0.0000e+00
      4.000     8.8628    31.0022 -9.990e-29 -9.990e-29    24.0134 4.3652e+02      4.490     0.4911 0.0000e+00
      3.000     8.9135    30.9787 -9.990e-29 -9.990e-29    23.9909 5.5081e+02      3.475     0.4641 0.0000e+00
      2.000     9.0884    30.9390 -9.990e-29 -9.990e-29    23.9574 6.2833e+02      3.004     0.4648 0.0000e+00
      1.000     9.1049    30.7380 -9.990e-29 -9.990e-29    23.7737 7.7809e+02      2.417     0.3690 0.0000e+00
