* Sea-Bird SBE19plus Data File:
* FileName = C:\data\otf\2007\ctd-07100.hex
* Software Version 1.55
* Temperature SN =  5061
* Conductivity SN =  5061
* System UpLoad Time = Aug 15 2007 16:33:10
* ds
* SeacatPlus V 1.6a  SERIAL NO. 5061    15 Aug 2007  15:31:53
* vbatt = 10.9, vlith =  8.7, ioper =  61.6 ma, ipump =  57.5 ma, 
* iext01 =  95.2 ma
* iext23 =  58.1 ma
* 
* status = not logging
* number of scans to average = 1
* samples = 153039, free = 288466, casts = 154
* mode = profile, minimum cond freq = 3000, pump delay = 60 sec
* autorun = no, ignore magnetic switch = no
* battery type = alkaline, battery cutoff =  7.3 volts
* pressure sensor = strain gauge, range = 870.0
* SBE 38 = no, Gas Tension Device = no
* Ext Volt 0 = yes, Ext Volt 1 = yes, Ext Volt 2 = yes, Ext Volt 3 = yes
* echo commands = yes
* output format = raw HEX
* S>
* 
* SeacatPlus V 1.6a  SERIAL NO. 5061    15 Aug 2007  15:32:18
* temperature:  05-oct-06
*     TA0 = 1.254184e-03
*     TA1 = 2.596730e-04
*     TA2 = 5.165612e-07
*     TA3 = 1.318931e-07
*     TOFFSET = 0.000000e+00
* conductivity:  05-oct-06
*     G = -9.978144e-01
*     H = 1.555200e-01
*     I = -4.839108e-04
*     J = 6.121100e-05
*     CF0 = 2.539936e+03
*     CPCOR = -9.570000e-08
*     CTCOR = 3.250000e-06
*     CSLOPE = 1.000000e+00
* pressure S/N = 2362539, range = 870 psia:  24-aug-06
*     PA0 = 2.171091e-01
*     PA1 = 2.647085e-03
*     PA2 = 1.419397e-11
*     PTCA0 = 5.242437e+05
*     PTCA1 = 7.545345e+00
*     PTCA2 = -1.835354e-01
*     PTCB0 = 2.537125e+01
*     PTCB1 = -1.750000e-03
*     PTCB2 = 0.000000e+00
*     PTEMPA0 = -5.753989e+01
*     PTEMPA1 = 5.235813e+01
*     PTEMPA2 = -4.015521e-02
*     POFFSET = 0.000000e+00
* volt 0: offset = -4.682842e-02, slope = 1.249147e+00
* volt 1: offset = -4.695158e-02, slope = 1.248145e+00
* volt 2: offset = -4.685263e-02, slope = 1.248783e+00
* volt 3: offset = -4.690316e-02, slope = 1.249508e+00
*     EXTFREQSF = 1.000002e+00
* dh
* cast 100 20 Jul 2007 06:47:45 samples 65637 to 65850, avg = 4, stop = mag switch
* S> 
# nquan = 10
# nvalues = 110                         
# units = specified
# name 0 = depSM: Depth [salt water, m]
# name 1 = tv290C: Temperature [ITS-90, deg C]
# name 2 = sal00: Salinity [PSU]
# name 3 = sbeox0Mg/L: Oxygen, SBE 43 [mg/l]
# name 4 = sbeox0PS: Oxygen, SBE 43 [% saturation]
# name 5 = sigma-t00: Density [sigma-t, Kg/m^3 ]
# name 6 = par: PAR/Irradiance, Biospherical/Licor
# name 7 = prdM: Pressure, Strain Gauge [db]
# name 8 = flECO-AFL: Fluorescence, Wetlab ECO-AFL/FL [mg/m^3]
# name 9 = flag: flag
# span 0 =      1.000,     57.000       
# span 1 =     9.4474,    10.2464       
# span 2 =    30.0298,    30.7767       
# span 3 =    8.86583,   10.53700       
# span 4 =   95.55666,  101.82730       
# span 5 =    23.0355,    23.7438       
# span 6 = 1.5410e+00, 3.4016e+01       
# span 7 =      1.874,     56.891       
# span 8 =     0.8685,     1.6009       
# span 9 = 0.0000e+00, 0.0000e+00       
# interval = meters: 1                  
# start_time = Jul 20 2007 06:47:45
# bad_flag = -9.990e-29
# sensor 0 = Frequency 0  temperature, 5061, 05-Oct-06
# sensor 1 = Frequency 1  conductivity, 5061, 05-Oct-06, cpcor = -9.5700e-08
# sensor 2 = Pressure Number
# sensor 3 = Extrnl Volt  0  irradiance (PAR), primary, 4751, 08/10/06
# sensor 4 = Extrnl Volt  1  Oxygen, SBE, primary, 1081, 10/24/06
# sensor 5 = Extrnl Volt  2  WET Labs, ECO_AFL
# sensor 6 = Extrnl Volt  3  userpoly 0, 0627, 10/11/06
# datcnv_date = Oct 15 2007 14:49:47, 5.37e
# datcnv_in = I:\bob d\OTF_GEM\2007\ctd-07100.hex I:\Willette\OTF\CTD\5061.con
# datcnv_skipover = 0
# filter_date = Oct 15 2007 15:02:29, 5.37e
# filter_in = I:\Willette\OTF\CTD\2007\CTD Data\ctd-07100.cnv
# filter_low_pass_tc_A = 1.000
# filter_low_pass_tc_B = 0.150
# filter_low_pass_A_vars = prdM
# filter_low_pass_B_vars =
# loopedit_date = Oct 15 2007 15:06:50, 5.37e
# loopedit_in = I:\Willette\OTF\CTD\2007\CTD Data\ctd-07100.cnv
# loopedit_minVelocity = 0.250                                                                                            
# loopedit_surfaceSoak: minDepth = 5.0, maxDepth = 20, useDeckPress = 1                                                   
# loopedit_excl_bad_scans = yes
# alignctd_date = Oct 15 2007 15:14:17, 5.37e
# alignctd_in = I:\Willette\OTF\CTD\2007\CTD Data\ctd-07100.cnv
# alignctd_adv = tv290C 0.500, sbeox0Mg/L 4.000, sbeox0PS 4.000                                                                                                                                                                      
# binavg_date = Oct 15 2007 15:18:46, 5.37e
# binavg_in = I:\Willette\OTF\CTD\2007\CTD Data\ctd-07100.cnv
# binavg_bintype = meters
# binavg_binsize = 1
# binavg_excl_bad_scans = yes
# binavg_skipover = 0
# binavg_surface_bin = no, min = 0.000, max = 0.000, value = 0.000
# file_type = ascii
*END*
      4.000    10.2353    30.0393    8.86583   95.55666    23.0427 8.3680e+00      4.870     0.8899 0.0000e+00
      5.000    10.2253    30.0414    8.90211   95.95023    23.0446 5.5665e+00      5.502     0.8685 0.0000e+00
      6.000    10.2123    30.0449    8.97978   96.78233    23.0476 3.8792e+00      6.222     0.8736 0.0000e+00
      7.000    10.2095    30.0665    8.94077   96.34244    23.0662 2.9183e+00      6.933     0.8710 0.0000e+00
      8.000    10.2078    30.0863    8.93941   96.27537    23.0838 2.3426e+00      7.921     0.8778 0.0000e+00
      9.000    10.2028    30.0960    8.95192   96.24619    23.0919 2.0088e+00      9.386     0.9197 0.0000e+00
     10.000    10.1870    30.1039    8.96704   96.29853    23.0988 1.8274e+00     10.461     0.9572 0.0000e+00
     11.000    10.1499    30.1288    8.94821   95.93624    23.1196 1.7235e+00     11.563     0.9916 0.0000e+00
     12.000    10.1308    30.1818    9.02487   96.66325    23.1660 1.6476e+00     12.653     1.0331 0.0000e+00
     13.000    10.1275    30.2254    9.00024   96.32610    23.2040 1.6079e+00     13.626     1.0361 0.0000e+00
     14.000    10.1278    30.2496    8.97070   95.88989    23.2244 1.5863e+00     14.457     1.0523 0.0000e+00
     15.000    10.1292    30.2558    9.09098   97.12383    23.2296 1.5726e+00     15.474     1.0605 0.0000e+00
     16.000    10.1294    30.2635    9.21479   98.40982    23.2355 1.5637e+00     16.557     1.0576 0.0000e+00
     17.000    10.1251    30.2713    9.28304   99.12617    23.2413 1.5589e+00     17.594     1.0848 0.0000e+00
     18.000    10.1168    30.2729    9.30491   99.34042    23.2426 1.5563e+00     18.302     1.0810 0.0000e+00
     19.000    10.0978    30.2779    9.33029   99.59431    23.2470 1.5540e+00     19.443     1.0783 0.0000e+00
     20.000    10.0635    30.2780    9.35436   99.84952    23.2489 1.5539e+00     20.477     1.0515 0.0000e+00
     21.000    10.0300    30.2858    9.36913   99.96673    23.2569 1.5527e+00     21.135     1.0272 0.0000e+00
     22.000     9.9717    30.3056    9.38811  100.13712    23.2771 1.5522e+00     22.160     1.0141 0.0000e+00
     23.000     9.9323    30.3275    9.40482  100.29960    23.3014 1.5518e+00     23.165     0.9925 0.0000e+00
     24.000     9.8750    30.3652    9.42111  100.46534    23.3391 1.5517e+00     24.071     0.9662 0.0000e+00
     25.000     9.8043    30.3995    9.43771  100.62680    23.3734 1.5517e+00     25.206     0.9829 0.0000e+00
     26.000     9.7704    30.4389    9.44810  100.72963    23.4144 1.5514e+00     26.175     1.0012 0.0000e+00
     27.000     9.7439    30.4773    9.45512  100.79715    23.4523 1.5513e+00     26.977     0.9788 0.0000e+00
     28.000     9.6798    30.5140    9.46171  100.86164    23.4873 1.5515e+00     27.939     0.9740 0.0000e+00
     29.000     9.6400    30.5331    9.46468  100.86771    23.5086 1.5511e+00     29.106     0.9455 0.0000e+00
     30.000     9.6206    30.5837    9.47393  100.94889    23.5603 1.5509e+00     30.086     0.9404 0.0000e+00
     31.000     9.6093    30.6035    9.47874  100.99081    23.5801 1.5510e+00     31.326     0.9374 0.0000e+00
     32.000     9.5960    30.6147    9.49190  101.13204    23.5910 1.5510e+00     32.290     0.9475 0.0000e+00
     33.000     9.5909    30.6243    9.49962  101.21647    23.6006 1.5503e+00     33.362     0.9367 0.0000e+00
     34.000     9.5645    30.6348    9.50581  101.27842    23.6107 1.5489e+00     34.541     0.9419 0.0000e+00
     35.000     9.5416    30.6348    9.51241  101.33348    23.6112 1.5410e+00     35.660     0.9564 0.0000e+00
     36.000     9.5354    30.6562    9.51605  101.36306    23.6318 1.5466e+00     36.436     0.9600 0.0000e+00
     37.000     9.5288    30.6750    9.51749  101.37941    23.6496 1.5501e+00     37.410     0.9331 0.0000e+00
     38.000     9.5206    30.6847    9.52051  101.40939    23.6586 1.5503e+00     38.380     0.9582 0.0000e+00
     39.000     9.5161    30.6930    9.52379  101.44013    23.6660 1.5508e+00     39.236     0.9615 0.0000e+00
     40.000     9.5108    30.6991    9.52834  101.48463    23.6719 1.5509e+00     40.149     0.9472 0.0000e+00
     41.000     9.5061    30.7044    9.53195  101.51945    23.6770 1.5505e+00     41.173     0.9532 0.0000e+00
     42.000     9.4874    30.7117    9.54269  101.63134    23.6838 1.5510e+00     42.312     0.9697 0.0000e+00
     43.000     9.4756    30.7202    9.54842  101.69373    23.6912 1.5505e+00     43.447     0.9837 0.0000e+00
     44.000     9.4736    30.7406    9.54806  101.68986    23.7100 1.5505e+00     44.242     1.0030 0.0000e+00
     45.000     9.4744    30.7483    9.54997  101.70742    23.7173 1.5507e+00     45.321     1.0503 0.0000e+00
     46.000 -9.990e-29 -9.990e-29 -9.990e-29 -9.990e-29 -9.990e-29 -9.990e-29 -9.990e-29 -9.990e-29 -9.990e-29
     47.000     9.4741    30.7496    9.54752  101.68021    23.7188 1.5504e+00     47.159     1.0348 0.0000e+00
     48.000     9.4646    30.7481    9.54412  101.64459    23.7174 1.5505e+00     48.329     1.0303 0.0000e+00
     49.000     9.4566    30.7541    9.54604  101.66570    23.7227 1.5507e+00     49.329     1.0532 0.0000e+00
     50.000     9.4582    30.7636    9.53959  101.59714    23.7315 1.5502e+00     50.158     1.0620 0.0000e+00
     51.000     9.4560    30.7711    9.53851  101.58546    23.7388 1.5503e+00     51.230     1.1001 0.0000e+00
     52.000     9.4530    30.7675    9.53474  101.54818    23.7352 1.5502e+00     51.943     1.1492 0.0000e+00
     53.000     9.4506    30.7711    9.53448  101.54550    23.7386 1.5499e+00     52.850     1.1476 0.0000e+00
     54.000 -9.990e-29 -9.990e-29 -9.990e-29 -9.990e-29 -9.990e-29 -9.990e-29 -9.990e-29 -9.990e-29 -9.990e-29
     55.000     9.4485    30.7745    9.54186  101.62677    23.7419 1.5502e+00     53.958     1.1771 0.0000e+00
     56.000     9.4489    30.7761    9.54242  101.63175    23.7435 1.5578e+00     54.887     1.2361 0.0000e+00
     57.000     9.4474    30.7752    9.54690  101.68289    23.7430 1.5430e+00     56.891     1.6009 0.0000e+00
     56.000     9.4504    30.7767    9.54057  101.62837    23.7438 1.5503e+00     55.897     1.3603 0.0000e+00
     55.000     9.4510    30.7751    9.54892  101.72015    23.7424 1.5473e+00     54.996     1.2114 0.0000e+00
     54.000     9.4513    30.7743    9.55423  101.77691    23.7418 1.5502e+00     54.183     1.2566 0.0000e+00
     53.000     9.4526    30.7741    9.54814  101.72060    23.7415 1.5492e+00     53.283     1.2085 0.0000e+00
     52.000     9.4529    30.7729    9.54546  101.69578    23.7404 1.5495e+00     52.450     1.2034 0.0000e+00
     51.000     9.4534    30.7720    9.53953  101.64045    23.7397 1.5493e+00     51.368     1.1886 0.0000e+00
     50.000     9.4588    30.7715    9.54283  101.69194    23.7392 1.5492e+00     50.447     1.2489 0.0000e+00
     49.000     9.4611    30.7665    9.54612  101.74430    23.7346 1.5494e+00     49.501     1.1898 0.0000e+00
     48.000     9.4616    30.7639    9.54923  101.78870    23.7320 1.5490e+00     48.373     1.1564 0.0000e+00
     47.000     9.4633    30.7632    9.55002  101.81040    23.7313 1.5491e+00     47.373     1.1567 0.0000e+00
     46.000     9.4689    30.7613    9.54906  101.81465    23.7297 1.5490e+00     46.459     1.1229 0.0000e+00
     45.000     9.4700    30.7543    9.54964  101.82730    23.7233 1.5488e+00     45.345     1.0127 0.0000e+00
     44.000     9.4779    30.7533    9.54668  101.80809    23.7224 1.5488e+00     44.310     1.1000 0.0000e+00
     43.000     9.4871    30.7451    9.54273  101.77219    23.7148 1.5489e+00     43.377     1.0403 0.0000e+00
     42.000     9.5017    30.7340    9.53142  101.65247    23.7047 1.5488e+00     42.265     1.0942 0.0000e+00
     41.000     9.5042    30.7208    9.53538  101.72536    23.6927 1.5492e+00     41.376     0.9942 0.0000e+00
     40.000     9.5102    30.7151    9.52682  101.66056    23.6875 1.5491e+00     40.458     0.9801 0.0000e+00
     39.000     9.5211    30.7068    9.52151  101.62565    23.6797 1.5486e+00     39.296     1.0001 0.0000e+00
     38.000     9.5247    30.6997    9.52546  101.68948    23.6729 1.5486e+00     38.501     0.9796 0.0000e+00
     37.000     9.5300    30.6922    9.51694  101.64850    23.6659 1.5486e+00     37.216     0.9192 0.0000e+00
     36.000     9.5392    30.6867    9.50487  101.57253    23.6611 1.5486e+00     36.335     0.9333 0.0000e+00
     35.000     9.5390    30.6765    9.49236  101.48327    23.6517 1.5484e+00     35.366     0.9226 0.0000e+00
     34.000     9.5520    30.6759    9.49546  101.60840    23.6511 1.5488e+00     34.248     0.9477 0.0000e+00
     33.000     9.5689    30.6645    9.49001  101.61199    23.6405 1.5488e+00     33.308     0.9138 0.0000e+00
     32.000     9.5819    30.6478    9.48665  101.72029    23.6245 1.5487e+00     32.238     0.9240 0.0000e+00
     31.000     9.5925    30.6363    9.48122  101.78027    23.6134 1.5489e+00     31.269     0.9086 0.0000e+00
     30.000     9.6105    30.6307    9.46440  101.72597    23.6079 1.5488e+00     30.323     1.0105 0.0000e+00
     29.000     9.6440    30.6150    9.46128  101.81569    23.5924 1.5485e+00     29.236     0.9224 0.0000e+00
     28.000     9.6678    30.5926    9.44873  101.76964    23.5700 1.5484e+00     28.216     0.9763 0.0000e+00
     27.000     9.6986    30.5761    9.44497  101.77282    23.5534 1.5484e+00     27.256     0.9731 0.0000e+00
     26.000     9.7670    30.5518    9.44498  101.78949    23.5295 1.5485e+00     26.077     0.9745 0.0000e+00
     25.000     9.7786    30.5133    9.43171  101.64885    23.4916 1.5489e+00     25.240     0.9381 0.0000e+00
     24.000     9.8628    30.4933    9.43656  101.70059    23.4716 1.5487e+00     24.332     0.9214 0.0000e+00
     23.000     9.9405    30.4195    9.43794  101.71766    23.3974 1.5488e+00     23.027     0.9863 0.0000e+00
     22.000    10.0091    30.3914    9.43976  101.73614    23.3688 1.5489e+00     22.269     0.9499 0.0000e+00
     21.000    10.0563    30.3494    9.41236  101.42453    23.3239 1.5499e+00     21.187     1.0290 0.0000e+00
     20.000    10.0936    30.3159    9.40969  101.39073    23.2889 1.5502e+00     20.155     1.0150 0.0000e+00
     19.000    10.1191    30.2905    9.41363  101.43829    23.2624 1.5509e+00     19.206     1.0174 0.0000e+00
     18.000    10.1236    30.2771    9.41267  101.47395    23.2477 1.5529e+00     18.132     1.0274 0.0000e+00
     17.000    10.1255    30.2726    9.40515  101.41214    23.2433 1.5562e+00     17.245     1.0081 0.0000e+00
     16.000    10.1248    30.2733    9.38980  101.25801    23.2436 1.5605e+00     16.120     1.0318 0.0000e+00
     15.000    10.1262    30.2728    9.37157  101.07322    23.2432 1.5690e+00     15.167     1.0625 0.0000e+00
     14.000    10.1259    30.2717    9.36945  101.06731    23.2421 1.5834e+00     14.169     1.0680 0.0000e+00
     13.000    10.1229    30.2659    9.36247  101.00082    23.2376 1.6073e+00     13.076     1.0315 0.0000e+00
     12.000    10.1250    30.2570    9.35884  100.96213    23.2311 1.6507e+00     12.076     1.0368 0.0000e+00
     11.000    10.1388    30.2421    9.34428  100.81416    23.2194 1.7112e+00     11.020     1.0206 0.0000e+00
     10.000    10.1705    30.2189    9.33802  100.75128    23.2000 1.8300e+00     10.209     1.0268 0.0000e+00
      9.000    10.1929    30.1523    9.31286  100.48060    23.1415 2.0465e+00      9.002     0.9859 0.0000e+00
      8.000    10.2054    30.1231    9.60609   99.53963    23.1160 2.3776e+00      8.043     0.9640 0.0000e+00
      7.000    10.2135    30.0970   10.53700   98.68576    23.0937 2.9211e+00      7.218     0.9437 0.0000e+00
      6.000    10.2276    30.0771 -9.990e-29 -9.990e-29    23.0764 3.8865e+00      6.169     0.9590 0.0000e+00
      5.000    10.2363    30.0554 -9.990e-29 -9.990e-29    23.0573 5.3660e+00      5.106     0.9868 0.0000e+00
      4.000    10.2383    30.0439 -9.990e-29 -9.990e-29    23.0469 8.0251e+00      4.336     0.9945 0.0000e+00
      3.000    10.2409    30.0298 -9.990e-29 -9.990e-29    23.0355 1.2245e+01      3.356     1.0038 0.0000e+00
      2.000    10.2438    30.0354 -9.990e-29 -9.990e-29    23.0395 2.0115e+01      2.580     0.9805 0.0000e+00
      1.000    10.2464    30.0350 -9.990e-29 -9.990e-29    23.0386 3.4016e+01      1.874     0.9584 0.0000e+00
