* Sea-Bird SBE19plus Data File:
* FileName = C:\data\otf\2007\ctd-07038.hex
* Software Version 1.55
* Temperature SN =  5061
* Conductivity SN =  5061
* System UpLoad Time = Aug 15 2007 16:06:43
* ds
* SeacatPlus V 1.6a  SERIAL NO. 5061    15 Aug 2007  15:31:53
* vbatt = 10.9, vlith =  8.7, ioper =  61.6 ma, ipump =  57.5 ma, 
* iext01 =  95.2 ma
* iext23 =  58.1 ma
* 
* status = not logging
* number of scans to average = 1
* samples = 153039, free = 288466, casts = 154
* mode = profile, minimum cond freq = 3000, pump delay = 60 sec
* autorun = no, ignore magnetic switch = no
* battery type = alkaline, battery cutoff =  7.3 volts
* pressure sensor = strain gauge, range = 870.0
* SBE 38 = no, Gas Tension Device = no
* Ext Volt 0 = yes, Ext Volt 1 = yes, Ext Volt 2 = yes, Ext Volt 3 = yes
* echo commands = yes
* output format = raw HEX
* S>
* 
* SeacatPlus V 1.6a  SERIAL NO. 5061    15 Aug 2007  15:32:18
* temperature:  05-oct-06
*     TA0 = 1.254184e-03
*     TA1 = 2.596730e-04
*     TA2 = 5.165612e-07
*     TA3 = 1.318931e-07
*     TOFFSET = 0.000000e+00
* conductivity:  05-oct-06
*     G = -9.978144e-01
*     H = 1.555200e-01
*     I = -4.839108e-04
*     J = 6.121100e-05
*     CF0 = 2.539936e+03
*     CPCOR = -9.570000e-08
*     CTCOR = 3.250000e-06
*     CSLOPE = 1.000000e+00
* pressure S/N = 2362539, range = 870 psia:  24-aug-06
*     PA0 = 2.171091e-01
*     PA1 = 2.647085e-03
*     PA2 = 1.419397e-11
*     PTCA0 = 5.242437e+05
*     PTCA1 = 7.545345e+00
*     PTCA2 = -1.835354e-01
*     PTCB0 = 2.537125e+01
*     PTCB1 = -1.750000e-03
*     PTCB2 = 0.000000e+00
*     PTEMPA0 = -5.753989e+01
*     PTEMPA1 = 5.235813e+01
*     PTEMPA2 = -4.015521e-02
*     POFFSET = 0.000000e+00
* volt 0: offset = -4.682842e-02, slope = 1.249147e+00
* volt 1: offset = -4.695158e-02, slope = 1.248145e+00
* volt 2: offset = -4.685263e-02, slope = 1.248783e+00
* volt 3: offset = -4.690316e-02, slope = 1.249508e+00
*     EXTFREQSF = 1.000002e+00
* dh
* cast  38 08 Jul 2007 10:18:52 samples 39460 to 39747, avg = 4, stop = mag switch
* S> 
# nquan = 10
# nvalues = 133                         
# units = specified
# name 0 = depSM: Depth [salt water, m]
# name 1 = tv290C: Temperature [ITS-90, deg C]
# name 2 = sal00: Salinity [PSU]
# name 3 = sbeox0Mg/L: Oxygen, SBE 43 [mg/l]
# name 4 = sbeox0PS: Oxygen, SBE 43 [% saturation]
# name 5 = sigma-t00: Density [sigma-t, Kg/m^3 ]
# name 6 = par: PAR/Irradiance, Biospherical/Licor
# name 7 = prdM: Pressure, Strain Gauge [db]
# name 8 = flECO-AFL: Fluorescence, Wetlab ECO-AFL/FL [mg/m^3]
# name 9 = flag: flag
# span 0 =      1.000,     68.000       
# span 1 =     8.0002,     8.1023       
# span 2 =    31.4858,    31.5318       
# span 3 =    8.57726,   10.00205       
# span 4 =   88.94267,  103.79761       
# span 5 =    24.5034,    24.5508       
# span 6 = 1.5550e+00, 3.9732e+02       
# span 7 =      1.329,     67.759       
# span 8 =     0.5850,     0.8406       
# span 9 = 0.0000e+00, 0.0000e+00       
# interval = meters: 1                  
# start_time = Jul 08 2007 10:18:52
# bad_flag = -9.990e-29
# sensor 0 = Frequency 0  temperature, 5061, 05-Oct-06
# sensor 1 = Frequency 1  conductivity, 5061, 05-Oct-06, cpcor = -9.5700e-08
# sensor 2 = Pressure Number
# sensor 3 = Extrnl Volt  0  irradiance (PAR), primary, 4751, 08/10/06
# sensor 4 = Extrnl Volt  1  Oxygen, SBE, primary, 1081, 10/24/06
# sensor 5 = Extrnl Volt  2  WET Labs, ECO_AFL
# sensor 6 = Extrnl Volt  3  userpoly 0, 0627, 10/11/06
# datcnv_date = Oct 15 2007 14:49:44, 5.37e
# datcnv_in = I:\bob d\OTF_GEM\2007\ctd-07038.hex I:\Willette\OTF\CTD\5061.con
# datcnv_skipover = 0
# filter_date = Oct 15 2007 15:02:23, 5.37e
# filter_in = I:\Willette\OTF\CTD\2007\CTD Data\ctd-07038.cnv
# filter_low_pass_tc_A = 1.000
# filter_low_pass_tc_B = 0.150
# filter_low_pass_A_vars = prdM
# filter_low_pass_B_vars =
# loopedit_date = Oct 15 2007 15:06:46, 5.37e
# loopedit_in = I:\Willette\OTF\CTD\2007\CTD Data\ctd-07038.cnv
# loopedit_minVelocity = 0.250                                                                                            
# loopedit_surfaceSoak: minDepth = 5.0, maxDepth = 20, useDeckPress = 1                                                   
# loopedit_excl_bad_scans = yes
# alignctd_date = Oct 15 2007 15:14:14, 5.37e
# alignctd_in = I:\Willette\OTF\CTD\2007\CTD Data\ctd-07038.cnv
# alignctd_adv = tv290C 0.500, sbeox0Mg/L 4.000, sbeox0PS 4.000                                                                                                                                                                      
# binavg_date = Oct 15 2007 15:18:43, 5.37e
# binavg_in = I:\Willette\OTF\CTD\2007\CTD Data\ctd-07038.cnv
# binavg_bintype = meters
# binavg_binsize = 1
# binavg_excl_bad_scans = yes
# binavg_skipover = 0
# binavg_surface_bin = no, min = 0.000, max = 0.000, value = 0.000
# file_type = ascii
*END*
      3.000     8.0928    31.5019    9.00902   93.42507    24.5115 1.4121e+02      4.582     0.6094 0.0000e+00
      4.000     8.0920    31.4955    8.89940   92.29241    24.5086 1.2408e+02      5.263     0.6458 0.0000e+00
      5.000     8.0923    31.4995    8.80797   91.36976    24.5126 1.0804e+02      6.049     0.6728 0.0000e+00
      6.000     8.0909    31.4949    8.75185   90.78257    24.5091 9.5509e+01      6.921     0.7199 0.0000e+00
      7.000     8.0877    31.4948    8.68008   90.01258    24.5090 8.4252e+01      7.778     0.7223 0.0000e+00
      8.000     8.0852    31.4903    8.64788   89.69595    24.5057 7.3243e+01      8.561     0.7424 0.0000e+00
      9.000 -9.990e-29 -9.990e-29 -9.990e-29 -9.990e-29 -9.990e-29 -9.990e-29 -9.990e-29 -9.990e-29 -9.990e-29
     10.000     8.0792    31.4910    8.66237   89.87935    24.5067 5.7671e+01      9.751     0.7834 0.0000e+00
     11.000     8.0502    31.4925    8.63912   89.58783    24.5085 4.7093e+01     11.103     0.7613 0.0000e+00
     12.000     8.0464    31.4858    8.57726   88.94267    24.5039 4.1812e+01     11.813     0.7071 0.0000e+00
     13.000     8.0470    31.4920    8.62395   89.39280    24.5111 3.6389e+01     12.470     0.6978 0.0000e+00
     14.000     8.0487    31.5000    8.82053   91.40530    24.5190 3.1184e+01     13.297     0.6898 0.0000e+00
     15.000     8.0519    31.5020    9.05769   93.85437    24.5211 2.7027e+01     14.078     0.6698 0.0000e+00
     16.000     8.0549    31.5035    9.25407   95.89692    24.5221 2.3445e+01     14.856     0.6440 0.0000e+00
     17.000     8.0651    31.5030    9.41858   97.58986    24.5211 2.0287e+01     15.738     0.6617 0.0000e+00
     18.000     8.0717    31.5064    9.58870   99.34276    24.5216 1.7684e+01     17.454     0.7051 0.0000e+00
     19.000     8.0778    31.5099    9.70666  100.53968    24.5231 1.5510e+01     19.549     0.6866 0.0000e+00
     20.000     8.0344    31.4961    9.73934  100.86090    24.5144 1.3662e+01     20.933     0.6636 0.0000e+00
     21.000     8.0399    31.4994    9.76157  101.09025    24.5212 1.2040e+01     21.951     0.6555 0.0000e+00
     22.000     8.0279    31.5013    9.76823  101.15734    24.5222 1.0598e+01     22.782     0.6351 0.0000e+00
     23.000     8.0383    31.4976    9.77149  101.19031    24.5201 9.3658e+00     23.770     0.6457 0.0000e+00
     24.000     8.0351    31.5074    9.78198  101.29938    24.5285 8.2883e+00     24.533     0.6010 0.0000e+00
     25.000     8.0177    31.5006    9.77607  101.23947    24.5207 7.2783e+00     25.485     0.6437 0.0000e+00
     26.000     8.0149    31.4923    9.78776  101.36004    24.5156 6.4649e+00     26.434     0.6533 0.0000e+00
     27.000     8.0175    31.5073    9.79786  101.46433    24.5294 5.7991e+00     27.248     0.6229 0.0000e+00
     28.000     8.0162    31.5090    9.80045  101.49240    24.5309 5.1951e+00     28.285     0.6530 0.0000e+00
     29.000     8.0068    31.5075    9.80358  101.52391    24.5295 4.6781e+00     29.180     0.6303 0.0000e+00
     30.000     8.0062    31.5081    9.80209  101.50879    24.5305 4.2353e+00     30.091     0.6086 0.0000e+00
     31.000     8.0018    31.5154    9.80925  101.58208    24.5375 3.8366e+00     31.185     0.5989 0.0000e+00
     32.000     8.0018    31.5204    9.81211  101.61132    24.5417 3.5375e+00     31.920     0.6365 0.0000e+00
     33.000     8.0008    31.5242    9.82006  101.69504    24.5451 3.2073e+00     33.185     0.6607 0.0000e+00
     34.000     8.0007    31.5238    9.81817  101.67651    24.5448 2.9798e+00     34.061     0.6346 0.0000e+00
     35.000     8.0002    31.5238    9.80848  101.57610    24.5448 2.7548e+00     35.299     0.7084 0.0000e+00
     36.000     8.0004    31.5251    9.80825  101.57417    24.5458 2.5937e+00     36.164     0.6444 0.0000e+00
     37.000     8.0006    31.5270    9.81629  101.65717    24.5475 2.4270e+00     37.341     0.6025 0.0000e+00
     38.000     8.0013    31.5251    9.82676  101.76686    24.5458 2.3097e+00     38.192     0.6587 0.0000e+00
     39.000     8.0006    31.5248    9.83025  101.80246    24.5455 2.1842e+00     39.331     0.7166 0.0000e+00
     40.000     8.0002    31.5247    9.83530  101.85463    24.5455 2.0992e+00     40.223     0.6560 0.0000e+00
     41.000     8.0002    31.5269    9.84072  101.91063    24.5473 2.0105e+00     41.271     0.6266 0.0000e+00
     42.000     8.0009    31.5256    9.83606  101.86374    24.5463 1.9483e+00     42.292     0.6183 0.0000e+00
     43.000     8.0016    31.5256    9.84294  101.93435    24.5462 1.8874e+00     43.335     0.6331 0.0000e+00
     44.000     8.0014    31.5242    9.84681  101.97571    24.5450 1.8376e+00     44.372     0.6055 0.0000e+00
     45.000     8.0012    31.5246    9.84739  101.98191    24.5454 1.7963e+00     45.447     0.5906 0.0000e+00
     46.000     8.0006    31.5261    9.85414  102.05227    24.5466 1.7603e+00     46.629     0.6169 0.0000e+00
     47.000     8.0009    31.5284    9.85229  102.03311    24.5485 1.7299e+00     47.384     0.6183 0.0000e+00
     48.000     8.0007    31.5289    9.84683  101.97719    24.5489 1.7019e+00     48.597     0.6200 0.0000e+00
     49.000     8.0009    31.5283    9.84512  101.96138    24.5484 1.6811e+00     49.395     0.6038 0.0000e+00
     50.000     8.0010    31.5276    9.84875  102.00002    24.5478 1.6605e+00     50.577     0.6361 0.0000e+00
     51.000     8.0011    31.5288    9.85232  102.03576    24.5487 1.6448e+00     51.491     0.6240 0.0000e+00
     52.000     8.0014    31.5284    9.85404  102.05385    24.5484 1.6313e+00     52.627     0.5907 0.0000e+00
     53.000     8.0016    31.5286    9.85462  102.06000    24.5485 1.6190e+00     53.861     0.5996 0.0000e+00
     54.000     8.0015    31.5286    9.85380  102.05191    24.5485 1.6091e+00     54.648     0.6209 0.0000e+00
     55.000     8.0017    31.5291    9.85833  102.09905    24.5488 1.6007e+00     55.564     0.6012 0.0000e+00
     56.000     8.0017    31.5290    9.86494  102.16739    24.5488 1.5930e+00     56.536     0.6149 0.0000e+00
     57.000     8.0019    31.5290    9.86768  102.19479    24.5488 1.5865e+00     57.496     0.6086 0.0000e+00
     58.000     8.0025    31.5290    9.86296  102.14605    24.5487 1.5809e+00     58.527     0.6450 0.0000e+00
     59.000     8.0029    31.5292    9.85494  102.06282    24.5488 1.5763e+00     59.447     0.6158 0.0000e+00
     60.000     8.0029    31.5294    9.85006  102.01217    24.5490 1.5720e+00     60.483     0.6009 0.0000e+00
     61.000     8.0027    31.5289    9.85347  102.04732    24.5486 1.5686e+00     61.473     0.6115 0.0000e+00
     62.000     8.0029    31.5286    9.85960  102.11116    24.5484 1.5657e+00     62.374     0.5859 0.0000e+00
     63.000     8.0029    31.5291    9.86327  102.14936    24.5486 1.5634e+00     63.498     0.6068 0.0000e+00
     64.000     8.0030    31.5286    9.86513  102.17113    24.5483 1.5617e+00     64.374     0.6253 0.0000e+00
     65.000     8.0032    31.5291    9.86967  102.21710    24.5487 1.5600e+00     65.204     0.6036 0.0000e+00
     66.000     8.0032    31.5289    9.86775  102.19816    24.5485 1.5586e+00     65.955     0.6214 0.0000e+00
     67.000     8.0030    31.5285    9.86727  102.19263    24.5481 1.5571e+00     66.642     0.6261 0.0000e+00
     68.000     8.0033    31.5281    9.86714  102.18989    24.5478 1.5550e+00     67.759     0.6669 0.0000e+00
     67.000     8.0035    31.5283    9.86400  102.15581    24.5479 1.5582e+00     66.981     0.6697 0.0000e+00
     66.000     8.0033    31.5284    9.84927  102.00369    24.5481 1.5582e+00     66.046     0.6449 0.0000e+00
     65.000     8.0034    31.5283    9.85139  102.02668    24.5480 1.5593e+00     65.276     0.6832 0.0000e+00
     64.000     8.0031    31.5285    9.85833  102.09962    24.5481 1.5611e+00     64.512     0.6531 0.0000e+00
     63.000     8.0032    31.5285    9.86443  102.16484    24.5482 1.5633e+00     63.258     0.6618 0.0000e+00
     62.000     8.0028    31.5284    9.86113  102.12939    24.5480 1.5656e+00     62.556     0.6532 0.0000e+00
     61.000     8.0024    31.5282    9.85966  102.11364    24.5480 1.5686e+00     61.518     0.7325 0.0000e+00
     60.000     8.0026    31.5280    9.85883  102.10262    24.5479 1.5720e+00     60.565     0.6439 0.0000e+00
     59.000     8.0026    31.5279    9.85512  102.06230    24.5478 1.5764e+00     59.594     0.6399 0.0000e+00
     58.000     8.0024    31.5282    9.85356  102.04388    24.5480 1.5810e+00     58.419     0.6771 0.0000e+00
     57.000     8.0028    31.5283    9.85332  102.04128    24.5481 1.5867e+00     57.592     0.6614 0.0000e+00
     56.000     8.0028    31.5313    9.86163  102.12691    24.5504 1.5927e+00     56.261     0.6648 0.0000e+00
     55.000     8.0033    31.5313    9.86683  102.18069    24.5504 1.6012e+00     55.553     0.6739 0.0000e+00
     54.000     8.0029    31.5318    9.85603  102.06882    24.5508 1.6104e+00     54.685     0.7044 0.0000e+00
     53.000     8.0031    31.5308    9.85479  102.05512    24.5500 1.6225e+00     53.421     0.6375 0.0000e+00
     52.000     8.0022    31.5295    9.86155  102.12660    24.5490 1.6357e+00     52.470     0.6233 0.0000e+00
     51.000     8.0015    31.5288    9.86287  102.14179    24.5486 1.6508e+00     51.424     0.6395 0.0000e+00
     50.000     8.0014    31.5269    9.85513  102.06113    24.5472 1.6697e+00     50.350     0.6117 0.0000e+00
     49.000     8.0014    31.5258    9.84855  101.99669    24.5462 1.6916e+00     49.210     0.5982 0.0000e+00
     48.000     8.0014    31.5260    9.86707  102.18831    24.5464 1.7174e+00     48.202     0.6969 0.0000e+00
     47.000     8.0013    31.5254    9.86045  102.11659    24.5460 1.7468e+00     47.221     0.6450 0.0000e+00
     46.000     8.0014    31.5255    9.85318  102.05043    24.5460 1.7825e+00     46.276     0.6311 0.0000e+00
     45.000     8.0015    31.5254    9.85546  102.07701    24.5460 1.8248e+00     45.376     0.6566 0.0000e+00
     44.000     8.0023    31.5243    9.86673  102.19483    24.5450 1.8740e+00     44.208     0.6393 0.0000e+00
     43.000     8.0032    31.5238    9.86460  102.17319    24.5446 1.9314e+00     43.514     0.6267 0.0000e+00
     42.000     8.0036    31.5213    9.86205  102.14673    24.5426 1.9977e+00     42.594     0.5850 0.0000e+00
     41.000     8.0037    31.5207    9.85734  102.10010    24.5420 2.0754e+00     41.583     0.6112 0.0000e+00
     40.000     8.0042    31.5206    9.85652  102.09275    24.5419 2.1653e+00     40.904     0.5971 0.0000e+00
     39.000     8.0076    31.5183    9.88045  102.34137    24.5399 2.2752e+00     39.656     0.6501 0.0000e+00
     38.000     8.0047    31.5163    9.88830  102.42531    24.5381 2.3983e+00     38.888     0.7327 0.0000e+00
     37.000     8.0091    31.5191    9.88986  102.44834    24.5407 2.5429e+00     37.785     0.7166 0.0000e+00
     36.000     8.0116    31.5133    9.89109  102.46097    24.5353 2.7313e+00     36.535     0.6535 0.0000e+00
     35.000     8.0122    31.5110    9.89473  102.50245    24.5332 2.9374e+00     35.368     0.6228 0.0000e+00
     34.000     8.0139    31.5112    9.88974  102.45461    24.5333 3.1707e+00     34.249     0.6370 0.0000e+00
     33.000     8.0147    31.5106    9.89605  102.51534    24.5326 3.4534e+00     33.350     0.6108 0.0000e+00
     32.000     8.0186    31.5098    9.89584  102.51276    24.5317 3.7796e+00     32.405     0.6253 0.0000e+00
     31.000     8.0188    31.5073    9.89447  102.50605    24.5293 4.1585e+00     31.251     0.6329 0.0000e+00
     30.000     8.0205    31.5078    9.91020  102.66916    24.5298 4.5979e+00     30.156     0.6861 0.0000e+00
     29.000     8.0234    31.5063    9.89657  102.52774    24.5281 5.0734e+00     29.097     0.6112 0.0000e+00
     28.000     8.0207    31.5049    9.89480  102.51165    24.5268 5.6314e+00     28.094     0.6591 0.0000e+00
     27.000     8.0196    31.5060    9.91570  102.73701    24.5280 6.2951e+00     26.980     0.6478 0.0000e+00
     26.000     8.0216    31.5064    9.90894  102.66917    24.5284 7.0744e+00     26.055     0.6139 0.0000e+00
     25.000     8.0246    31.5058    9.90051  102.58415    24.5278 7.9317e+00     25.155     0.6662 0.0000e+00
     24.000     8.0253    31.5043    9.92407  102.82682    24.5262 8.9838e+00     23.997     0.6553 0.0000e+00
     23.000     8.0239    31.5035    9.90525  102.63215    24.5254 1.0176e+01     23.217     0.6288 0.0000e+00
     22.000     8.0241    31.5060    9.92595  102.84849    24.5279 1.1593e+01     21.525     0.6434 0.0000e+00
     21.000     8.0247    31.5044    9.90454  102.65558    24.5263 1.3221e+01     21.205     0.6383 0.0000e+00
     20.000     8.0287    31.5047    9.92595  102.91341    24.5265 1.5074e+01     19.937     0.5872 0.0000e+00
     19.000     8.0296    31.5032    9.91666  102.82491    24.5249 1.7356e+01     19.123     0.6708 0.0000e+00
     18.000     8.0305    31.5023    9.91268  102.78881    24.5240 1.9847e+01     18.231     0.6709 0.0000e+00
     17.000     8.0315    31.5015    9.92035  102.86954    24.5231 2.2810e+01     17.164     0.6450 0.0000e+00
     16.000     8.0304    31.5010    9.93715  103.04445    24.5226 2.6015e+01     16.170     0.6935 0.0000e+00
     15.000     8.0308    31.5011    9.93226  103.00023    24.5227 3.0179e+01     15.190     0.6002 0.0000e+00
     14.000     8.0343    31.5016    9.93979  103.08258    24.5231 3.4789e+01     14.209     0.6653 0.0000e+00
     13.000     8.0469    31.5019    9.95329  103.22676    24.5229 4.0246e+01     13.089     0.6819 0.0000e+00
     12.000     8.0597    31.4997    9.98317  103.54585    24.5199 4.6549e+01     12.176     0.6361 0.0000e+00
     11.000     8.0669    31.4941    9.99105  103.63158    24.5130 5.3849e+01     11.110     0.7650 0.0000e+00
     10.000     8.0687    31.4907    9.99589  103.68644    24.5095 6.2553e+01     10.112     0.7158 0.0000e+00
      9.000     8.0683    31.4895    9.98608  103.59677    24.5083 7.2465e+01      9.071     0.7063 0.0000e+00
      8.000     8.0689    31.4897    9.99343  103.68125    24.5085 8.4470e+01      8.136     0.7864 0.0000e+00
      7.000     8.0721    31.4898    9.98713  103.63026    24.5085 9.8777e+01      7.158     0.8406 0.0000e+00
      6.000     8.0738    31.4900   10.00205  103.79761    24.5083 1.1479e+02      6.289     0.7829 0.0000e+00
      5.000     8.0752    31.4893    9.98947  103.67302    24.5074 1.3108e+02      5.386     0.6850 0.0000e+00
      4.000     8.0797    31.4890    9.94315  102.62758    24.5068 1.4817e+02      4.473     0.6640 0.0000e+00
      3.000     8.0819    31.4888    9.72841   99.97299    24.5062 1.6941e+02      3.563     0.7503 0.0000e+00
      2.000     8.0909    31.4886 -9.990e-29 -9.990e-29    24.5052 1.9855e+02      2.271     0.7187 0.0000e+00
      1.000     8.1023    31.4883 -9.990e-29 -9.990e-29    24.5034 3.9732e+02      1.329     0.7307 0.0000e+00
