* Sea-Bird SBE19plus Data File:
* FileName = C:\data\otf\2007\ctd-07130.hex
* Software Version 1.55
* Temperature SN =  5061
* Conductivity SN =  5061
* System UpLoad Time = Aug 15 2007 17:24:30
* ds
* SeacatPlus V 1.6a  SERIAL NO. 5061    15 Aug 2007  15:31:53
* vbatt = 10.9, vlith =  8.7, ioper =  61.6 ma, ipump =  57.5 ma, 
* iext01 =  95.2 ma
* iext23 =  58.1 ma
* 
* status = not logging
* number of scans to average = 1
* samples = 153039, free = 288466, casts = 154
* mode = profile, minimum cond freq = 3000, pump delay = 60 sec
* autorun = no, ignore magnetic switch = no
* battery type = alkaline, battery cutoff =  7.3 volts
* pressure sensor = strain gauge, range = 870.0
* SBE 38 = no, Gas Tension Device = no
* Ext Volt 0 = yes, Ext Volt 1 = yes, Ext Volt 2 = yes, Ext Volt 3 = yes
* echo commands = yes
* output format = raw HEX
* S>
* 
* SeacatPlus V 1.6a  SERIAL NO. 5061    15 Aug 2007  15:32:18
* temperature:  05-oct-06
*     TA0 = 1.254184e-03
*     TA1 = 2.596730e-04
*     TA2 = 5.165612e-07
*     TA3 = 1.318931e-07
*     TOFFSET = 0.000000e+00
* conductivity:  05-oct-06
*     G = -9.978144e-01
*     H = 1.555200e-01
*     I = -4.839108e-04
*     J = 6.121100e-05
*     CF0 = 2.539936e+03
*     CPCOR = -9.570000e-08
*     CTCOR = 3.250000e-06
*     CSLOPE = 1.000000e+00
* pressure S/N = 2362539, range = 870 psia:  24-aug-06
*     PA0 = 2.171091e-01
*     PA1 = 2.647085e-03
*     PA2 = 1.419397e-11
*     PTCA0 = 5.242437e+05
*     PTCA1 = 7.545345e+00
*     PTCA2 = -1.835354e-01
*     PTCB0 = 2.537125e+01
*     PTCB1 = -1.750000e-03
*     PTCB2 = 0.000000e+00
*     PTEMPA0 = -5.753989e+01
*     PTEMPA1 = 5.235813e+01
*     PTEMPA2 = -4.015521e-02
*     POFFSET = 0.000000e+00
* volt 0: offset = -4.682842e-02, slope = 1.249147e+00
* volt 1: offset = -4.695158e-02, slope = 1.248145e+00
* volt 2: offset = -4.685263e-02, slope = 1.248783e+00
* volt 3: offset = -4.690316e-02, slope = 1.249508e+00
*     EXTFREQSF = 1.000002e+00
* dh
* cast 130 26 Jul 2007 07:03:27 samples 127073 to 128137, avg = 1, stop = mag switch
* S> 
# nquan = 10
# nvalues = 125                         
# units = specified
# name 0 = depSM: Depth [salt water, m]
# name 1 = tv290C: Temperature [ITS-90, deg C]
# name 2 = sal00: Salinity [PSU]
# name 3 = sbeox0Mg/L: Oxygen, SBE 43 [mg/l]
# name 4 = sbeox0PS: Oxygen, SBE 43 [% saturation]
# name 5 = sigma-t00: Density [sigma-t, Kg/m^3 ]
# name 6 = par: PAR/Irradiance, Biospherical/Licor
# name 7 = prdM: Pressure, Strain Gauge [db]
# name 8 = flECO-AFL: Fluorescence, Wetlab ECO-AFL/FL [mg/m^3]
# name 9 = flag: flag
# span 0 =      1.000,     65.000       
# span 1 =     8.4351,     9.0234       
# span 2 =    31.5305,    31.7049       
# span 3 =    8.50767,    9.63538       
# span 4 =   89.91546,   99.04590       
# span 5 =    24.3997,    24.6239       
# span 6 = 1.5526e+00, 6.6968e+01       
# span 7 =      1.096,     65.472       
# span 8 =     1.0532,     1.8388       
# span 9 = 0.0000e+00, 0.0000e+00       
# interval = meters: 1                  
# start_time = Jul 26 2007 07:03:27
# bad_flag = -9.990e-29
# sensor 0 = Frequency 0  temperature, 5061, 05-Oct-06
# sensor 1 = Frequency 1  conductivity, 5061, 05-Oct-06, cpcor = -9.5700e-08
# sensor 2 = Pressure Number
# sensor 3 = Extrnl Volt  0  irradiance (PAR), primary, 4751, 08/10/06
# sensor 4 = Extrnl Volt  1  Oxygen, SBE, primary, 1081, 10/24/06
# sensor 5 = Extrnl Volt  2  WET Labs, ECO_AFL
# sensor 6 = Extrnl Volt  3  userpoly 0, 0627, 10/11/06
# datcnv_date = Oct 15 2007 14:49:52, 5.37e
# datcnv_in = I:\bob d\OTF_GEM\2007\ctd-07130.hex I:\Willette\OTF\CTD\5061.con
# datcnv_skipover = 0
# filter_date = Oct 15 2007 15:02:40, 5.37e
# filter_in = I:\Willette\OTF\CTD\2007\CTD Data\ctd-07130.cnv
# filter_low_pass_tc_A = 1.000
# filter_low_pass_tc_B = 0.150
# filter_low_pass_A_vars = prdM
# filter_low_pass_B_vars =
# loopedit_date = Oct 15 2007 15:06:58, 5.37e
# loopedit_in = I:\Willette\OTF\CTD\2007\CTD Data\ctd-07130.cnv
# loopedit_minVelocity = 0.250                                                                                            
# loopedit_surfaceSoak: minDepth = 5.0, maxDepth = 20, useDeckPress = 1                                                   
# loopedit_excl_bad_scans = yes
# alignctd_date = Oct 15 2007 15:14:23, 5.37e
# alignctd_in = I:\Willette\OTF\CTD\2007\CTD Data\ctd-07130.cnv
# alignctd_adv = tv290C 0.500, sbeox0Mg/L 4.000, sbeox0PS 4.000                                                                                                                                                                      
# binavg_date = Oct 15 2007 15:18:52, 5.37e
# binavg_in = I:\Willette\OTF\CTD\2007\CTD Data\ctd-07130.cnv
# binavg_bintype = meters
# binavg_binsize = 1
# binavg_excl_bad_scans = yes
# binavg_skipover = 0
# binavg_surface_bin = no, min = 0.000, max = 0.000, value = 0.000
# file_type = ascii
*END*
      5.000     8.9350    31.5780    8.50767   89.91546    24.4469 1.8088e+01      5.058     1.8388 0.0000e+00
      6.000     8.9129    31.5912    8.53521   90.14167    24.4621 1.6773e+01      6.178     1.6074 0.0000e+00
      7.000     8.8954    31.5882    8.61469   90.94813    24.4620 1.4797e+01      7.034     1.6971 0.0000e+00
      8.000     8.8780    31.6011    8.65970   91.38997    24.4752 1.3055e+01      8.051     1.6691 0.0000e+00
      9.000     8.8549    31.5972    8.68420   91.61531    24.4749 1.1712e+01      9.112     1.5527 0.0000e+00
     10.000     8.8279    31.6042    8.72123   91.98699    24.4844 1.0491e+01     10.009     1.5572 0.0000e+00
     11.000     8.8071    31.6185    8.84829   93.31899    24.4994 9.2709e+00     11.065     1.5495 0.0000e+00
     12.000     8.7889    31.6234    8.95790   94.47124    24.5065 8.2955e+00     12.068     1.4371 0.0000e+00
     13.000     8.7800    31.6075    9.03505   95.26895    24.4959 7.4605e+00     13.205     1.4481 0.0000e+00
     14.000     8.7762    31.6084    9.07427   95.65647    24.4971 6.7751e+00     14.103     1.4957 0.0000e+00
     15.000     8.7760    31.6116    9.11350   96.06279    24.5003 6.1220e+00     15.161     1.4273 0.0000e+00
     16.000     8.7694    31.6063    9.13488   96.28512    24.4960 5.5857e+00     16.148     1.3921 0.0000e+00
     17.000     8.7548    31.6108    9.15419   96.47290    24.5019 5.0259e+00     17.136     1.3976 0.0000e+00
     18.000     8.7507    31.6152    9.17656   96.67601    24.5065 4.5579e+00     18.275     1.4044 0.0000e+00
     19.000     8.7498    31.6159    9.19263   96.82578    24.5073 4.1884e+00     19.260     1.3786 0.0000e+00
     20.000     8.7441    31.6131    9.20712   96.95828    24.5054 3.8848e+00     20.205     1.4086 0.0000e+00
     21.000     8.7327    31.6132    9.22150   97.09518    24.5068 3.6059e+00     21.105     1.3851 0.0000e+00
     22.000     8.7216    31.6193    9.23466   97.18267    24.5136 3.3527e+00     22.165     1.4164 0.0000e+00
     23.000     8.7104    31.6201    9.25128   97.28471    24.5158 3.1264e+00     23.150     1.3080 0.0000e+00
     24.000     8.6955    31.6224    9.27464   97.44145    24.5194 2.9115e+00     24.282     1.3001 0.0000e+00
     25.000     8.6703    31.6294    9.29942   97.53900    24.5287 2.7391e+00     25.346     1.3403 0.0000e+00
     26.000     8.6359    31.6244    9.30361   97.59776    24.5279 2.5986e+00     26.246     1.2920 0.0000e+00
     27.000     8.6070    31.6414    9.31257   97.70110    24.5470 2.4760e+00     27.240     1.2260 0.0000e+00
     28.000     8.5517    31.6369    9.31934   97.77205    24.5483 2.3716e+00     28.194     1.1902 0.0000e+00
     29.000     8.5182    31.6846    9.32338   97.80941    24.5966 2.2759e+00     29.332     1.1685 0.0000e+00
     30.000     8.5261    31.6764    9.32427   97.82065    24.5882 2.1906e+00     30.201     1.1364 0.0000e+00
     31.000     8.5275    31.6756    9.32804   97.85284    24.5873 2.1040e+00     31.342     1.1671 0.0000e+00
     32.000     8.5257    31.6739    9.34235   97.96739    24.5859 2.0380e+00     32.296     1.1801 0.0000e+00
     33.000     8.5267    31.6781    9.34891   98.03837    24.5899 1.9768e+00     33.376     1.1255 0.0000e+00
     34.000     8.5227    31.6694    9.35493   98.10469    24.5820 1.9303e+00     34.404     1.1291 0.0000e+00
     35.000     8.5074    31.6736    9.36245   98.17899    24.5876 1.8875e+00     35.163     1.1377 0.0000e+00
     36.000     8.5052    31.6819    9.36107   98.11648    24.5957 1.8445e+00     36.366     1.1551 0.0000e+00
     37.000     8.5074    31.6817    9.35860   98.07862    24.5952 1.8116e+00     37.313     1.1222 0.0000e+00
     38.000     8.4999    31.6774    9.36053   98.10060    24.5919 1.7770e+00     38.380     1.1286 0.0000e+00
     39.000     8.4802    31.6831    9.36180   98.12150    24.5993 1.7493e+00     39.414     1.1166 0.0000e+00
     40.000     8.4759    31.6888    9.37316   98.24076    24.6051 1.7251e+00     40.390     1.0975 0.0000e+00
     41.000     8.4769    31.6914    9.38204   98.32754    24.6073 1.7044e+00     41.359     1.1122 0.0000e+00
     42.000     8.4794    31.6909    9.37978   98.29771    24.6067 1.6856e+00     42.458     1.1056 0.0000e+00
     43.000     8.4815    31.6880    9.38038   98.30071    24.6037 1.6710e+00     43.389     1.1267 0.0000e+00
     44.000     8.4782    31.6887    9.38608   98.36284    24.6047 1.6559e+00     44.362     1.1203 0.0000e+00
     45.000     8.4749    31.6889    9.38926   98.37901    24.6053 1.6427e+00     45.523     1.1043 0.0000e+00
     46.000     8.4724    31.6912    9.38932   98.38230    24.6077 1.6314e+00     46.401     1.1059 0.0000e+00
     47.000     8.4760    31.6913    9.39383   98.40412    24.6073 1.6210e+00     47.473     1.1357 0.0000e+00
     48.000     8.4671    31.6896    9.39410   98.37441    24.6067 1.6124e+00     48.434     1.1067 0.0000e+00
     49.000     8.4669    31.6940    9.39436   98.37163    24.6107 1.6048e+00     49.544     1.0980 0.0000e+00
     50.000     8.4580    31.6907    9.39439   98.37278    24.6083 1.5987e+00     50.443     1.1108 0.0000e+00
     51.000     8.4396    31.6956    9.39619   98.39823    24.6149 1.5839e+00     51.428     1.1174 0.0000e+00
     52.000     8.4351    31.7049    9.39243   98.36315    24.6239 1.5851e+00     52.524     1.0792 0.0000e+00
     53.000     8.4359    31.7045    9.39732   98.41077    24.6235 1.5820e+00     53.488     1.0857 0.0000e+00
     54.000     8.4395    31.7046    9.40446   98.47973    24.6233 1.5778e+00     54.562     1.0833 0.0000e+00
     55.000     8.4412    31.7025    9.40473   98.48175    24.6211 1.5744e+00     55.495     1.0913 0.0000e+00
     56.000     8.4395    31.7035    9.40776   98.51430    24.6222 1.5713e+00     56.505     1.1034 0.0000e+00
     57.000     8.4369    31.7020    9.40363   98.47187    24.6211 1.5684e+00     57.537     1.1217 0.0000e+00
     58.000     8.4361    31.7045    9.40050   98.43748    24.6235 1.5664e+00     58.588     1.1172 0.0000e+00
     59.000     8.4366    31.7044    9.39999   98.43183    24.6233 1.5642e+00     59.454     1.1347 0.0000e+00
     60.000     8.4370    31.7038    9.40048   98.43690    24.6228 1.5620e+00     60.563     1.0928 0.0000e+00
     61.000     8.4361    31.7039    9.40527   98.48729    24.6230 1.5604e+00     61.574     1.0864 0.0000e+00
     62.000     8.4361    31.7045    9.39578   98.38857    24.6235 1.5590e+00     62.745     1.1093 0.0000e+00
     63.000     8.4362    31.7043    9.39889   98.42157    24.6233 1.5579e+00     63.528     1.1506 0.0000e+00
     64.000     8.4363    31.7045    9.40418   98.47704    24.6234 1.5568e+00     64.467     1.1436 0.0000e+00
     65.000     8.4366    31.7045    9.39886   98.42063    24.6235 1.5556e+00     65.472     1.1854 0.0000e+00
     64.000     8.4371    31.7041    9.39690   98.40112    24.6230 1.5556e+00     64.452     1.1656 0.0000e+00
     63.000     8.4368    31.7042    9.39121   98.34224    24.6231 1.5526e+00     63.601     1.2056 0.0000e+00
     62.000     8.4369    31.7043    9.38579   98.28665    24.6232 1.5589e+00     62.569     1.1553 0.0000e+00
     61.000     8.4372    31.7042    9.38865   98.31620    24.6230 1.5599e+00     61.636     1.1736 0.0000e+00
     60.000     8.4380    31.7040    9.39272   98.35785    24.6228 1.5615e+00     60.554     1.1686 0.0000e+00
     59.000     8.4377    31.7035    9.39678   98.39992    24.6224 1.5636e+00     59.568     1.1828 0.0000e+00
     58.000     8.4373    31.7035    9.39929   98.42609    24.6225 1.5654e+00     58.579     1.1726 0.0000e+00
     57.000     8.4371    31.7034    9.40014   98.43347    24.6225 1.5680e+00     57.569     1.1233 0.0000e+00
     56.000     8.4367    31.7037    9.39836   98.41711    24.6227 1.5705e+00     56.532     1.1463 0.0000e+00
     55.000     8.4367    31.7037    9.39992   98.43402    24.6228 1.5738e+00     55.521     1.1044 0.0000e+00
     54.000     8.4379    31.7036    9.40270   98.46312    24.6226 1.5785e+00     54.503     1.1201 0.0000e+00
     53.000     8.4377    31.7030    9.40147   98.45136    24.6221 1.5828e+00     53.537     1.1013 0.0000e+00
     52.000     8.4382    31.7033    9.40423   98.47815    24.6223 1.5871e+00     52.477     1.0892 0.0000e+00
     51.000     8.4377    31.7026    9.40284   98.46504    24.6217 1.5923e+00     51.485     1.0967 0.0000e+00
     50.000     8.4373    31.7030    9.40388   98.48128    24.6221 1.5981e+00     50.465     1.0806 0.0000e+00
     49.000     8.4396    31.7036    9.39954   98.44047    24.6224 1.6047e+00     49.527     1.0532 0.0000e+00
     48.000     8.4417    31.7024    9.40931   98.53722    24.6210 1.6122e+00     48.432     1.0902 0.0000e+00
     47.000     8.4415    31.7005    9.41099   98.55527    24.6194 1.6216e+00     47.441     1.0799 0.0000e+00
     46.000     8.4399    31.7020    9.40717   98.51938    24.6209 1.6318e+00     46.441     1.0903 0.0000e+00
     45.000     8.4409    31.7020    9.40633   98.52246    24.6208 1.6433e+00     45.441     1.0873 0.0000e+00
     44.000     8.4450    31.7016    9.40988   98.58880    24.6201 1.6566e+00     44.431     1.0740 0.0000e+00
     43.000     8.4524    31.6997    9.41072   98.59878    24.6176 1.6717e+00     43.383     1.1018 0.0000e+00
     42.000     8.4661    31.6947    9.41119   98.67804    24.6115 1.6900e+00     42.396     1.1423 0.0000e+00
     41.000     8.4662    31.6966    9.41494   98.75258    24.6135 1.7061e+00     41.375     1.0907 0.0000e+00
     40.000     8.5077    31.6863    9.41363   98.72485    24.5997 1.7290e+00     40.409     1.1969 0.0000e+00
     39.000     8.5153    31.6760    9.40801   98.66635    24.5893 1.7547e+00     39.364     1.1716 0.0000e+00
     38.000     8.5078    31.6788    9.41402   98.74355    24.5927 1.7864e+00     38.299     1.1931 0.0000e+00
     37.000     8.5110    31.6796    9.41557   98.76097    24.5931 1.8180e+00     37.388     1.0830 0.0000e+00
     36.000     8.5172    31.6772    9.41081   98.71444    24.5902 1.8516e+00     36.359     1.1015 0.0000e+00
     35.000     8.5182    31.6766    9.41189   98.75262    24.5895 1.8948e+00     35.316     1.1056 0.0000e+00
     34.000     8.5215    31.6762    9.41560   98.82317    24.5889 1.9462e+00     34.309     1.0996 0.0000e+00
     33.000     8.5361    31.6738    9.41600   98.83094    24.5852 2.0052e+00     33.283     1.1809 0.0000e+00
     32.000     8.5478    31.6717    9.41291   98.79622    24.5819 2.0571e+00     32.382     1.1673 0.0000e+00
     31.000     8.5495    31.6663    9.41371   98.80621    24.5767 2.1301e+00     31.272     1.1623 0.0000e+00
     30.000     8.5481    31.6666    9.41852   98.87301    24.5772 2.2170e+00     30.213     1.1041 0.0000e+00
     29.000     8.5501    31.6674    9.41996   98.94098    24.5777 2.3044e+00     29.355     1.1217 0.0000e+00
     28.000     8.5562    31.6685    9.41625   98.96411    24.5781 2.3971e+00     28.296     1.1700 0.0000e+00
     27.000     8.5918    31.6619    9.41268   98.96961    24.5682 2.5197e+00     27.248     1.2031 0.0000e+00
     26.000     8.6235    31.6517    9.40915   98.97945    24.5553 2.6624e+00     26.190     1.2418 0.0000e+00
     25.000     8.6356    31.6448    9.40897   99.02886    24.5476 2.8069e+00     25.226     1.2185 0.0000e+00
     24.000     8.6520    31.6447    9.40084   98.97108    24.5456 2.9698e+00     24.327     1.2142 0.0000e+00
     23.000     8.6880    31.6331    9.39833   99.00315    24.5309 3.1807e+00     23.104     1.2909 0.0000e+00
     22.000     8.7014    31.6301    9.40173   99.04498    24.5266 3.4207e+00     22.193     1.2753 0.0000e+00
     21.000     8.7182    31.6237    9.40134   99.04590    24.5187 3.6797e+00     21.231     1.3169 0.0000e+00
     20.000     8.7253    31.6197    9.39320   98.97252    24.5142 3.9850e+00     20.208     1.4275 0.0000e+00
     19.000     8.7287    31.6195    9.38554   98.89324    24.5135 4.3557e+00     19.134     1.3622 0.0000e+00
     18.000     8.7343    31.6183    9.38787   98.92444    24.5117 4.7302e+00     18.170     1.3200 0.0000e+00
     17.000     8.7343    31.6172    9.38685   98.94599    24.5107 5.1905e+00     17.201     1.3517 0.0000e+00
     16.000     8.7380    31.6179    9.38613   98.95932    24.5109 5.7421e+00     16.118     1.3993 0.0000e+00
     15.000     8.7547    31.6168    9.37700   98.87555    24.5081 6.4054e+00     15.136     1.4417 0.0000e+00
     14.000     8.7626    31.6108    9.36937   98.83009    24.5016 7.1260e+00     14.144     1.3871 0.0000e+00
     13.000     8.7681    31.6095    9.36677   98.82682    24.4998 7.9300e+00     13.125     1.4024 0.0000e+00
     12.000     8.7863    31.6084    9.35840   98.75177    24.4967 8.9298e+00     12.087     1.6170 0.0000e+00
     11.000     8.7973    31.6023    9.36398   98.83197    24.4897 1.0008e+01     11.110     1.6604 0.0000e+00
     10.000     8.8024    31.6016    9.35859   98.82047    24.4885 1.1358e+01     10.119     1.4908 0.0000e+00
      9.000     8.8130    31.6002    9.35744   98.85941    24.4861 1.2670e+01      9.104     1.5462 0.0000e+00
      8.000     8.8378    31.5970    9.35271   98.83054    24.4805 1.4332e+01      8.076     1.5403 0.0000e+00
      7.000     8.8646    31.5872    9.34598   98.81040    24.4683 1.6482e+01      6.994     1.5907 0.0000e+00
      6.000     8.8701    31.5831    9.34445   98.88202    24.4638 1.8690e+01      6.118     1.5963 0.0000e+00
      5.000     8.8930    31.5809    9.34346   98.96606    24.4596 2.0768e+01      5.029     1.6003 0.0000e+00
      4.000     8.9449    31.5664    9.33970   98.96670    24.4413 2.5096e+01      4.035     1.7655 0.0000e+00
      3.000     8.9904    31.5440    9.33366   98.93808    24.4162 2.9184e+01      3.006     1.7910 0.0000e+00
      2.000     9.0079    31.5310    9.31502   98.75763    24.4023 3.2859e+01      2.041     1.6845 0.0000e+00
      1.000     9.0234    31.5305    9.63538   97.72552    24.3997 6.6968e+01      1.096     1.7352 0.0000e+00
