* Sea-Bird SBE19plus Data File:
* FileName = C:\data\otf\2007\ctd-07091.hex
* Software Version 1.55
* Temperature SN =  5061
* Conductivity SN =  5061
* System UpLoad Time = Aug 15 2007 16:25:02
* ds
* SeacatPlus V 1.6a  SERIAL NO. 5061    15 Aug 2007  15:31:53
* vbatt = 10.9, vlith =  8.7, ioper =  61.6 ma, ipump =  57.5 ma, 
* iext01 =  95.2 ma
* iext23 =  58.1 ma
* 
* status = not logging
* number of scans to average = 1
* samples = 153039, free = 288466, casts = 154
* mode = profile, minimum cond freq = 3000, pump delay = 60 sec
* autorun = no, ignore magnetic switch = no
* battery type = alkaline, battery cutoff =  7.3 volts
* pressure sensor = strain gauge, range = 870.0
* SBE 38 = no, Gas Tension Device = no
* Ext Volt 0 = yes, Ext Volt 1 = yes, Ext Volt 2 = yes, Ext Volt 3 = yes
* echo commands = yes
* output format = raw HEX
* S>
* 
* SeacatPlus V 1.6a  SERIAL NO. 5061    15 Aug 2007  15:32:18
* temperature:  05-oct-06
*     TA0 = 1.254184e-03
*     TA1 = 2.596730e-04
*     TA2 = 5.165612e-07
*     TA3 = 1.318931e-07
*     TOFFSET = 0.000000e+00
* conductivity:  05-oct-06
*     G = -9.978144e-01
*     H = 1.555200e-01
*     I = -4.839108e-04
*     J = 6.121100e-05
*     CF0 = 2.539936e+03
*     CPCOR = -9.570000e-08
*     CTCOR = 3.250000e-06
*     CSLOPE = 1.000000e+00
* pressure S/N = 2362539, range = 870 psia:  24-aug-06
*     PA0 = 2.171091e-01
*     PA1 = 2.647085e-03
*     PA2 = 1.419397e-11
*     PTCA0 = 5.242437e+05
*     PTCA1 = 7.545345e+00
*     PTCA2 = -1.835354e-01
*     PTCB0 = 2.537125e+01
*     PTCB1 = -1.750000e-03
*     PTCB2 = 0.000000e+00
*     PTEMPA0 = -5.753989e+01
*     PTEMPA1 = 5.235813e+01
*     PTEMPA2 = -4.015521e-02
*     POFFSET = 0.000000e+00
* volt 0: offset = -4.682842e-02, slope = 1.249147e+00
* volt 1: offset = -4.695158e-02, slope = 1.248145e+00
* volt 2: offset = -4.685263e-02, slope = 1.248783e+00
* volt 3: offset = -4.690316e-02, slope = 1.249508e+00
*     EXTFREQSF = 1.000002e+00
* dh
* cast  91 18 Jul 2007 09:36:38 samples 56388 to 56750, avg = 4, stop = mag switch
* S> 
# nquan = 10
# nvalues = 172                         
# units = specified
# name 0 = depSM: Depth [salt water, m]
# name 1 = tv290C: Temperature [ITS-90, deg C]
# name 2 = sal00: Salinity [PSU]
# name 3 = sbeox0Mg/L: Oxygen, SBE 43 [mg/l]
# name 4 = sbeox0PS: Oxygen, SBE 43 [% saturation]
# name 5 = sigma-t00: Density [sigma-t, Kg/m^3 ]
# name 6 = par: PAR/Irradiance, Biospherical/Licor
# name 7 = prdM: Pressure, Strain Gauge [db]
# name 8 = flECO-AFL: Fluorescence, Wetlab ECO-AFL/FL [mg/m^3]
# name 9 = flag: flag
# span 0 =      1.000,     88.000       
# span 1 =     8.2311,     9.1305       
# span 2 =    30.9717,    31.6440       
# span 3 =    9.40266,    9.78534       
# span 4 =   98.65613,  102.05425       
# span 5 =    23.9471,    24.6059       
# span 6 = 1.5456e+00, 9.7651e+01       
# span 7 =      1.513,     87.556       
# span 8 =     0.8127,     2.3054       
# span 9 = 0.0000e+00, 0.0000e+00       
# interval = meters: 1                  
# start_time = Jul 18 2007 09:36:38
# bad_flag = -9.990e-29
# sensor 0 = Frequency 0  temperature, 5061, 05-Oct-06
# sensor 1 = Frequency 1  conductivity, 5061, 05-Oct-06, cpcor = -9.5700e-08
# sensor 2 = Pressure Number
# sensor 3 = Extrnl Volt  0  irradiance (PAR), primary, 4751, 08/10/06
# sensor 4 = Extrnl Volt  1  Oxygen, SBE, primary, 1081, 10/24/06
# sensor 5 = Extrnl Volt  2  WET Labs, ECO_AFL
# sensor 6 = Extrnl Volt  3  userpoly 0, 0627, 10/11/06
# datcnv_date = Oct 15 2007 14:49:46, 5.37e
# datcnv_in = I:\bob d\OTF_GEM\2007\ctd-07091.hex I:\Willette\OTF\CTD\5061.con
# datcnv_skipover = 0
# filter_date = Oct 15 2007 15:02:27, 5.37e
# filter_in = I:\Willette\OTF\CTD\2007\CTD Data\ctd-07091.cnv
# filter_low_pass_tc_A = 1.000
# filter_low_pass_tc_B = 0.150
# filter_low_pass_A_vars = prdM
# filter_low_pass_B_vars =
# loopedit_date = Oct 15 2007 15:06:49, 5.37e
# loopedit_in = I:\Willette\OTF\CTD\2007\CTD Data\ctd-07091.cnv
# loopedit_minVelocity = 0.250                                                                                            
# loopedit_surfaceSoak: minDepth = 5.0, maxDepth = 20, useDeckPress = 1                                                   
# loopedit_excl_bad_scans = yes
# alignctd_date = Oct 15 2007 15:14:16, 5.37e
# alignctd_in = I:\Willette\OTF\CTD\2007\CTD Data\ctd-07091.cnv
# alignctd_adv = tv290C 0.500, sbeox0Mg/L 4.000, sbeox0PS 4.000                                                                                                                                                                      
# binavg_date = Oct 15 2007 15:18:45, 5.37e
# binavg_in = I:\Willette\OTF\CTD\2007\CTD Data\ctd-07091.cnv
# binavg_bintype = meters
# binavg_binsize = 1
# binavg_excl_bad_scans = yes
# binavg_skipover = 0
# binavg_surface_bin = no, min = 0.000, max = 0.000, value = 0.000
# file_type = ascii
*END*
      4.000     9.0865    30.9871    9.40266   98.65613    23.9591 5.1598e+01      4.996     0.9864 0.0000e+00
      5.000     9.0640    31.0018    9.43748   98.94616    23.9736 4.3084e+01      5.858     0.9580 0.0000e+00
      6.000     9.0067    31.0170    9.45200   99.06480    23.9883 3.4634e+01      6.605     0.9923 0.0000e+00
      7.000     8.9926    31.0285    9.47630   99.29746    23.9999 2.8059e+01      7.350     0.9287 0.0000e+00
      8.000     8.9898    31.0762    9.49090   99.43682    24.0450 2.3050e+01      8.073     0.9382 0.0000e+00
      9.000     8.9823    31.0966    9.50258   99.54258    24.0640 1.8636e+01      8.916     0.9584 0.0000e+00
     10.000     8.9701    31.1009    9.51460   99.64329    24.0686 1.5261e+01     10.072     0.9688 0.0000e+00
     11.000     8.9587    31.1052    9.53651   99.85264    24.0741 1.2574e+01     11.328     0.9663 0.0000e+00
     12.000     8.8295    31.1086    9.55498  100.02482    24.0781 1.0434e+01     12.490     1.0017 0.0000e+00
     13.000     8.7582    31.1548    9.56651  100.12626    24.1242 8.7376e+00     13.447     1.0031 0.0000e+00
     14.000     8.7057    31.2291    9.58055  100.25299    24.1973 7.2612e+00     14.497     0.9735 0.0000e+00
     15.000     8.6860    31.2725    9.59042  100.34521    24.2400 6.2009e+00     15.453     1.0117 0.0000e+00
     16.000     8.6257    31.3021    9.60189  100.45810    24.2691 5.2994e+00     16.445     1.0123 0.0000e+00
     17.000     8.5940    31.3055    9.60566  100.49096    24.2740 4.6374e+00     17.354     1.0154 0.0000e+00
     18.000     8.5722    31.3400    9.61308  100.56520    24.3097 4.0694e+00     18.303     0.9656 0.0000e+00
     19.000     8.5568    31.3644    9.62293  100.66242    24.3338 3.6240e+00     19.280     0.9253 0.0000e+00
     20.000     8.5475    31.3778    9.62654  100.69008    24.3474 3.2562e+00     20.220     0.9021 0.0000e+00
     21.000     8.5394    31.3877    9.62829  100.69815    24.3573 2.9619e+00     21.116     0.8809 0.0000e+00
     22.000     8.5296    31.3952    9.63593  100.76504    24.3647 2.7075e+00     22.109     0.8825 0.0000e+00
     23.000     8.5210    31.4016    9.63482  100.74492    24.3711 2.5059e+00     23.188     0.8859 0.0000e+00
     24.000     8.5142    31.4065    9.63267  100.71450    24.3765 2.3428e+00     24.194     0.8644 0.0000e+00
     25.000     8.5074    31.4104    9.63980  100.78176    24.3807 2.2073e+00     25.236     0.8807 0.0000e+00
     26.000     8.4953    31.4151    9.64764  100.86177    24.3855 2.0961e+00     26.273     0.8760 0.0000e+00
     27.000     8.4868    31.4190    9.64921  100.86438    24.3898 2.0090e+00     27.347     0.8582 0.0000e+00
     28.000 -9.990e-29 -9.990e-29 -9.990e-29 -9.990e-29 -9.990e-29 -9.990e-29 -9.990e-29 -9.990e-29 -9.990e-29
     29.000     8.4770    31.4258    9.65802  100.92137    24.3970 1.8955e+00     28.816     0.8597 0.0000e+00
     30.000     8.4719    31.4321    9.66498  100.96906    24.4036 1.8164e+00     30.261     0.8543 0.0000e+00
     31.000     8.4694    31.4341    9.67171  101.03618    24.4058 1.7747e+00     31.220     0.8338 0.0000e+00
     32.000     8.4668    31.4364    9.67504  101.06553    24.4082 1.7367e+00     32.186     0.8171 0.0000e+00
     33.000     8.4626    31.4385    9.67595  101.07049    24.4102 1.7056e+00     33.167     0.8199 0.0000e+00
     34.000     8.4569    31.4394    9.67861  101.09480    24.4113 1.6802e+00     34.141     0.8237 0.0000e+00
     35.000     8.4504    31.4414    9.68114  101.11515    24.4134 1.6587e+00     35.103     0.8127 0.0000e+00
     36.000     8.4453    31.4444    9.68183  101.11433    24.4166 1.6406e+00     36.078     0.8149 0.0000e+00
     37.000     8.4405    31.4490    9.68154  101.09454    24.4215 1.6252e+00     37.143     0.8261 0.0000e+00
     38.000     8.4352    31.4520    9.68201  101.08226    24.4245 1.6127e+00     38.247     0.8269 0.0000e+00
     39.000     8.4338    31.4552    9.68430  101.08321    24.4277 1.6015e+00     39.229     0.8586 0.0000e+00
     40.000     8.4262    31.4596    9.68926  101.11222    24.4318 1.5936e+00     40.291     0.8407 0.0000e+00
     41.000     8.4095    31.4628    9.69522  101.14194    24.4351 1.5865e+00     41.319     0.8496 0.0000e+00
     42.000     8.3916    31.4667    9.70147  101.20280    24.4389 1.5804e+00     42.331     0.8746 0.0000e+00
     43.000     8.3924    31.4851    9.70144  101.20087    24.4562 1.5753e+00     43.305     0.8475 0.0000e+00
     44.000     8.3876    31.5021    9.70360  101.22773    24.4723 1.5710e+00     44.327     0.8649 0.0000e+00
     45.000     8.3839    31.4975    9.70489  101.23234    24.4680 1.5676e+00     45.309     0.8863 0.0000e+00
     46.000     8.3808    31.5028    9.70911  101.24271    24.4729 1.5651e+00     46.465     0.8878 0.0000e+00
     47.000     8.3757    31.5037    9.71251  101.26538    24.4739 1.5629e+00     47.451     0.9086 0.0000e+00
     48.000     8.3675    31.5084    9.71725  101.30518    24.4782 1.5550e+00     48.421     0.9128 0.0000e+00
     49.000     8.3574    31.5153    9.72290  101.35678    24.4845 1.5561e+00     49.435     0.9241 0.0000e+00
     50.000     8.3422    31.5266    9.72794  101.39704    24.4951 1.5557e+00     50.601     0.9154 0.0000e+00
     51.000     8.3346    31.5332    9.72713  101.39422    24.5013 1.5542e+00     51.429     0.9178 0.0000e+00
     52.000     8.3149    31.5446    9.72425  101.35613    24.5122 1.5546e+00     52.447     0.9394 0.0000e+00
     53.000     8.3078    31.5569    9.72620  101.36166    24.5242 1.5538e+00     53.526     0.9475 0.0000e+00
     54.000     8.3059    31.5705    9.73381  101.43360    24.5372 1.5532e+00     54.414     0.9612 0.0000e+00
     55.000     8.3079    31.5715    9.74838  101.58049    24.5381 1.5531e+00     55.616     0.9801 0.0000e+00
     56.000     8.3077    31.5728    9.75101  101.60347    24.5394 1.5511e+00     56.529     1.0008 0.0000e+00
     57.000     8.2888    31.5709    9.74426  101.53314    24.5376 1.5511e+00     57.516     1.0147 0.0000e+00
     58.000     8.2772    31.5789    9.74644  101.55449    24.5452 1.5509e+00     58.566     1.0085 0.0000e+00
     59.000     8.2703    31.5951    9.75439  101.63771    24.5606 1.5514e+00     59.514     1.0424 0.0000e+00
     60.000     8.2669    31.6003    9.75507  101.64303    24.5655 1.5508e+00     60.581     1.0728 0.0000e+00
     61.000     8.2607    31.6043    9.75176  101.60179    24.5693 1.5506e+00     61.590     1.0451 0.0000e+00
     62.000     8.2626    31.6086    9.75342  101.61715    24.5734 1.5503e+00     62.587     1.1006 0.0000e+00
     63.000     8.2587    31.6148    9.75892  101.67622    24.5792 1.5506e+00     63.555     1.0774 0.0000e+00
     64.000     8.2502    31.6123    9.76023  101.68880    24.5768 1.5499e+00     64.602     1.0548 0.0000e+00
     65.000     8.2448    31.6177    9.76413  101.72851    24.5818 1.5499e+00     65.539     1.1373 0.0000e+00
     66.000     8.2412    31.6280    9.76716  101.75998    24.5913 1.5498e+00     66.594     1.1763 0.0000e+00
     67.000     8.2391    31.6312    9.77207  101.81149    24.5944 1.5496e+00     67.595     1.2293 0.0000e+00
     68.000     8.2382    31.6348    9.77137  101.80392    24.5976 1.5498e+00     68.649     1.7698 0.0000e+00
     69.000     8.2375    31.6363    9.77387  101.83026    24.5989 1.5495e+00     69.584     2.0915 0.0000e+00
     70.000     8.2375    31.6370    9.77389  101.83022    24.5995 1.5494e+00     70.671     1.8769 0.0000e+00
     71.000     8.2359    31.6376    9.77402  101.83146    24.6000 1.5492e+00     71.645     1.8164 0.0000e+00
     72.000     8.2316    31.6373    9.77927  101.88638    24.5998 1.5495e+00     72.735     1.9929 0.0000e+00
     73.000     8.2311    31.6417    9.78473  101.94358    24.6036 1.5494e+00     73.819     1.9727 0.0000e+00
     74.000     8.2321    31.6440    9.78534  101.94988    24.6059 1.5492e+00     74.715     2.0242 0.0000e+00
     75.000     8.2313    31.6437    9.78135  101.90846    24.6056 1.5494e+00     75.756     2.0430 0.0000e+00
     76.000     8.2311    31.6433    9.78095  101.90446    24.6053 1.5491e+00     76.669     2.0532 0.0000e+00
     77.000     8.2313    31.6439    9.76818  101.77206    24.6059 1.5490e+00     77.758     2.0386 0.0000e+00
     78.000     8.2315    31.6437    9.76580  101.74692    24.6057 1.5489e+00     78.636     2.0502 0.0000e+00
     79.000     8.2314    31.6439    9.76147  101.70181    24.6059 1.5488e+00     79.678     2.0423 0.0000e+00
     80.000     8.2315    31.6423    9.76167  101.70559    24.6046 1.5489e+00     80.677     2.0314 0.0000e+00
     81.000     8.2315    31.6431    9.76416  101.73295    24.6052 1.5489e+00     81.532     2.0647 0.0000e+00
     82.000     8.2314    31.6429    9.76701  101.76184    24.6051 1.5492e+00     82.497     2.0954 0.0000e+00
     83.000     8.2315    31.6428    9.76578  101.74859    24.6051 1.5489e+00     83.395     2.0776 0.0000e+00
     84.000     8.2318    31.6431    9.76687  101.75990    24.6052 1.5486e+00     84.347     2.0954 0.0000e+00
     85.000     8.2318    31.6429    9.76810  101.77251    24.6051 1.5487e+00     85.074     2.0552 0.0000e+00
     86.000     8.2318    31.6425    9.77248  101.81758    24.6048 1.5487e+00     85.891     2.0820 0.0000e+00
     87.000     8.2320    31.6426    9.77389  101.83192    24.6048 1.5487e+00     86.684     2.0938 0.0000e+00
     88.000     8.2321    31.6426    9.76835  101.77513    24.6048 1.5497e+00     87.556     2.2302 0.0000e+00
     87.000     8.2326    31.6425    9.77113  101.80245    24.6046 1.5488e+00     87.332     2.0516 0.0000e+00
     86.000     8.2326    31.6427    9.77897  101.88318    24.6048 1.5488e+00     85.821     1.9788 0.0000e+00
     85.000     8.2325    31.6429    9.77018  101.79108    24.6050 1.5486e+00     85.218     2.0476 0.0000e+00
     84.000     8.2324    31.6431    9.77217  101.81143    24.6051 1.5489e+00     84.480     2.1144 0.0000e+00
     83.000     8.2322    31.6433    9.76418  101.72876    24.6053 1.5485e+00     83.576     2.0434 0.0000e+00
     82.000     8.2318    31.6431    9.77010  101.79458    24.6052 1.5485e+00     82.675     2.0687 0.0000e+00
     81.000     8.2317    31.6434    9.77104  101.80845    24.6054 1.5485e+00     81.722     2.0836 0.0000e+00
     80.000     8.2316    31.6431    9.77110  101.81055    24.6052 1.5484e+00     80.721     2.0174 0.0000e+00
     79.000     8.2316    31.6434    9.76861  101.78254    24.6055 1.5488e+00     79.799     2.0848 0.0000e+00
     78.000     8.2314    31.6435    9.77083  101.80732    24.6055 1.5486e+00     78.778     2.1546 0.0000e+00
     77.000     8.2311    31.6432    9.77271  101.83048    24.6054 1.5487e+00     77.794     2.2573 0.0000e+00
     76.000     8.2311    31.6434    9.77637  101.86864    24.6056 1.5485e+00     76.806     2.3054 0.0000e+00
     75.000     8.2313    31.6431    9.76649  101.76514    24.6053 1.5488e+00     75.793     2.2684 0.0000e+00
     74.000     8.2338    31.6432    9.77136  101.81515    24.6054 1.5485e+00     74.794     2.1660 0.0000e+00
     73.000     8.2363    31.6407    9.77425  101.84544    24.6030 1.5486e+00     73.727     2.1320 0.0000e+00
     72.000     8.2363    31.6384    9.77841  101.89043    24.6009 1.5485e+00     72.772     2.0941 0.0000e+00
     71.000     8.2360    31.6384    9.77836  101.89455    24.6008 1.5485e+00     71.755     2.1039 0.0000e+00
     70.000     8.2381    31.6393    9.77888  101.91168    24.6017 1.5484e+00     70.763     2.1158 0.0000e+00
     69.000     8.2392    31.6359    9.77266  101.87484    24.5987 1.5483e+00     69.748     2.1219 0.0000e+00
     68.000     8.2390    31.6353    9.76561  101.81442    24.5980 1.5486e+00     68.750     2.0832 0.0000e+00
     67.000     8.2385    31.6349    9.76213  101.79211    24.5978 1.5486e+00     67.685     2.0745 0.0000e+00
     66.000     8.2387    31.6354    9.76388  101.81005    24.5982 1.5488e+00     66.714     1.3224 0.0000e+00
     65.000     8.2402    31.6349    9.75809  101.74751    24.5977 1.5490e+00     65.680     1.2726 0.0000e+00
     64.000     8.2455    31.6320    9.74985  101.68990    24.5952 1.5489e+00     64.671     1.2691 0.0000e+00
     63.000     8.2603    31.6256    9.74925  101.71072    24.5894 1.5489e+00     63.673     1.2310 0.0000e+00
     62.000     8.2736    31.6097    9.74977  101.70294    24.5745 1.5507e+00     62.630     1.1948 0.0000e+00
     61.000     8.2793    31.6009    9.74556  101.66443    24.5662 1.5509e+00     61.651     1.1651 0.0000e+00
     60.000     8.2815    31.5933    9.74810  101.70640    24.5589 1.5507e+00     60.638     1.1741 0.0000e+00
     59.000     8.2827    31.5935    9.74843  101.71813    24.5592 1.5505e+00     59.586     1.1263 0.0000e+00
     58.000     8.3003    31.5906    9.74629  101.70372    24.5564 1.5505e+00     58.618     1.1343 0.0000e+00
     57.000     8.3114    31.5730    9.73609  101.59825    24.5397 1.5502e+00     57.591     1.1254 0.0000e+00
     56.000     8.3037    31.5668    9.72895  101.52822    24.5338 1.5456e+00     56.563     1.1089 0.0000e+00
     55.000     8.3121    31.5725    9.73167  101.56700    24.5393 1.5510e+00     55.561     1.1252 0.0000e+00
     54.000     8.3181    31.5645    9.73257  101.59289    24.5315 1.5526e+00     54.532     1.0922 0.0000e+00
     53.000     8.3263    31.5604    9.73668  101.64177    24.5276 1.5528e+00     53.484     1.1228 0.0000e+00
     52.000     8.3258    31.5539    9.73157  101.59704    24.5215 1.5532e+00     52.445     1.6267 0.0000e+00
     51.000     8.3280    31.5545    9.73148  101.63569    24.5220 1.5538e+00     51.395     1.8059 0.0000e+00
     50.000     8.3319    31.5524    9.72579  101.60864    24.5201 1.5549e+00     50.383     1.8785 0.0000e+00
     49.000     8.3428    31.5467    9.72341  101.62006    24.5147 1.5557e+00     49.284     2.0044 0.0000e+00
     48.000     8.3478    31.5376    9.72607  101.67667    24.5060 1.5482e+00     48.040     1.3475 0.0000e+00
     47.000     8.3468    31.5355    9.72485  101.66995    24.5040 1.5582e+00     46.957     1.0661 0.0000e+00
     46.000     8.3554    31.5364    9.71464  101.56829    24.5048 1.5608e+00     45.985     1.1072 0.0000e+00
     45.000     8.3683    31.5318    9.71631  101.59564    24.5006 1.5635e+00     45.079     1.1191 0.0000e+00
     44.000     8.3832    31.5184    9.70723  101.50995    24.4880 1.5669e+00     43.978     1.0956 0.0000e+00
     43.000     8.3938    31.5066    9.71141  101.56277    24.4770 1.5714e+00     43.093     1.0726 0.0000e+00
     42.000     8.4012    31.4963    9.71159  101.57469    24.4675 1.5759e+00     42.073     1.0675 0.0000e+00
     41.000     8.4127    31.4876    9.71614  101.63218    24.4593 1.5815e+00     41.248     1.0061 0.0000e+00
     40.000     8.4214    31.4802    9.71519  101.62884    24.4523 1.5877e+00     40.346     0.9988 0.0000e+00
     39.000     8.4288    31.4699    9.71216  101.60147    24.4424 1.5949e+00     39.397     1.0287 0.0000e+00
     38.000     8.4324    31.4658    9.71269  101.61087    24.4381 1.5956e+00     38.525     1.0441 0.0000e+00
     37.000     8.4346    31.4611    9.71844  101.67556    24.4336 1.6141e+00     37.544     1.0880 0.0000e+00
     36.000     8.4365    31.4582    9.71770  101.67235    24.4309 1.6287e+00     36.589     1.1969 0.0000e+00
     35.000     8.4400    31.4563    9.71656  101.66618    24.4291 1.6443e+00     35.629     1.1168 0.0000e+00
     34.000     8.4452    31.4542    9.71706  101.68216    24.4270 1.6623e+00     34.676     1.0317 0.0000e+00
     33.000     8.4499    31.4504    9.71223  101.64476    24.4232 1.6861e+00     33.628     1.0376 0.0000e+00
     32.000     8.4560    31.4475    9.70816  101.60853    24.4204 1.7149e+00     32.593     0.9874 0.0000e+00
     31.000     8.4635    31.4445    9.70267  101.56058    24.4169 1.7491e+00     31.541     0.9851 0.0000e+00
     30.000     8.4680    31.4408    9.69925  101.55328    24.4129 1.7901e+00     30.522     1.0291 0.0000e+00
     29.000     8.4715    31.4373    9.70623  101.64445    24.4094 1.8376e+00     29.446     1.0329 0.0000e+00
     28.000     8.4754    31.4347    9.71236  101.71296    24.4069 1.8967e+00     28.306     1.0324 0.0000e+00
     27.000     8.4800    31.4332    9.71653  101.77694    24.4051 1.9657e+00     27.358     1.0291 0.0000e+00
     26.000     8.4887    31.4310    9.71479  101.78668    24.4028 2.0505e+00     26.445     1.0073 0.0000e+00
     25.000     8.4939    31.4264    9.70922  101.73966    24.3977 2.1527e+00     25.467     1.0208 0.0000e+00
     24.000     8.5021    31.4233    9.70836  101.76303    24.3946 2.2799e+00     24.412     1.0283 0.0000e+00
     23.000     8.5187    31.4172    9.71127  101.82027    24.3879 2.4373e+00     23.428     1.0508 0.0000e+00
     22.000     8.5246    31.4091    9.70970  101.84793    24.3795 2.6226e+00     22.371     1.0594 0.0000e+00
     21.000     8.5458    31.4019    9.69743  101.84558    24.3720 2.8574e+00     21.189     1.0264 0.0000e+00
     20.000     8.5639    31.3900    9.70342  102.02596    24.3600 3.1337e+00     19.972     1.0374 0.0000e+00
     19.000     8.5778    31.3803    9.69732  102.00829    24.3502 3.4715e+00     19.099     1.0392 0.0000e+00
     18.000     8.5914    31.3726    9.69778  102.05088    24.3423 3.8679e+00     18.225     1.0491 0.0000e+00
     17.000     8.6131    31.3614    9.68620  102.03203    24.3310 4.3864e+00     17.293     1.0510 0.0000e+00
     16.000     8.6714    31.3426    9.66800  102.05425    24.3115 5.0184e+00     16.253     1.0719 0.0000e+00
     15.000     8.7302    31.3012    9.64467  101.86131    24.2689 5.8337e+00     15.124     1.1213 0.0000e+00
     14.000     8.7670    31.2675    9.63138  101.74236    24.2348 6.8255e+00     13.947     1.1470 0.0000e+00
     13.000     8.8097    31.2469    9.62070  101.74765    24.2142 8.0805e+00     12.760     1.1100 0.0000e+00
     12.000     8.8935    31.2205    9.60596  101.66704    24.1881 9.7399e+00     11.809     1.1184 0.0000e+00
     11.000     8.9590    31.1622    9.59370  101.53260    24.1311 1.1928e+01     10.887     1.0858 0.0000e+00
     10.000     8.9824    31.1088    9.58836  101.45901    24.0786 1.4571e+01     10.007     1.0838 0.0000e+00
      9.000     8.9904    31.0937    9.58948  101.47377    24.0638 1.8063e+01      9.144     1.0923 0.0000e+00
      8.000     8.9932    31.0865    9.59052  101.49591    24.0569 2.2649e+01      8.222     1.0811 0.0000e+00
      7.000     9.0033    31.0830    9.59904  101.59941    24.0536 2.8721e+01      7.338     1.0744 0.0000e+00
      6.000     9.0559    31.0725    9.59826  101.59839    24.0438 3.6641e+01      6.427     1.0637 0.0000e+00
      5.000     9.0948    31.0227    9.58335  101.45717    23.9957 4.6647e+01      5.510     1.0662 0.0000e+00
      4.000     9.1078    30.9843    9.50080  100.57697    23.9590 5.9004e+01      4.224     1.0409 0.0000e+00
      3.000     9.1096    30.9917 -9.990e-29 -9.990e-29    23.9657 6.5511e+01      2.894     1.0113 0.0000e+00
      2.000     9.1199    30.9778 -9.990e-29 -9.990e-29    23.9529 7.1127e+01      2.187     1.0523 0.0000e+00
      1.000     9.1305    30.9717 -9.990e-29 -9.990e-29    23.9471 9.7651e+01      1.513     1.0524 0.0000e+00
