* Sea-Bird SBE19plus Data File:
* FileName = C:\data\otf\2007\ctd-07046.hex
* Software Version 1.55
* Temperature SN =  5061
* Conductivity SN =  5061
* System UpLoad Time = Aug 15 2007 16:09:17
* ds
* SeacatPlus V 1.6a  SERIAL NO. 5061    15 Aug 2007  15:31:53
* vbatt = 10.9, vlith =  8.7, ioper =  61.6 ma, ipump =  57.5 ma, 
* iext01 =  95.2 ma
* iext23 =  58.1 ma
* 
* status = not logging
* number of scans to average = 1
* samples = 153039, free = 288466, casts = 154
* mode = profile, minimum cond freq = 3000, pump delay = 60 sec
* autorun = no, ignore magnetic switch = no
* battery type = alkaline, battery cutoff =  7.3 volts
* pressure sensor = strain gauge, range = 870.0
* SBE 38 = no, Gas Tension Device = no
* Ext Volt 0 = yes, Ext Volt 1 = yes, Ext Volt 2 = yes, Ext Volt 3 = yes
* echo commands = yes
* output format = raw HEX
* S>
* 
* SeacatPlus V 1.6a  SERIAL NO. 5061    15 Aug 2007  15:32:18
* temperature:  05-oct-06
*     TA0 = 1.254184e-03
*     TA1 = 2.596730e-04
*     TA2 = 5.165612e-07
*     TA3 = 1.318931e-07
*     TOFFSET = 0.000000e+00
* conductivity:  05-oct-06
*     G = -9.978144e-01
*     H = 1.555200e-01
*     I = -4.839108e-04
*     J = 6.121100e-05
*     CF0 = 2.539936e+03
*     CPCOR = -9.570000e-08
*     CTCOR = 3.250000e-06
*     CSLOPE = 1.000000e+00
* pressure S/N = 2362539, range = 870 psia:  24-aug-06
*     PA0 = 2.171091e-01
*     PA1 = 2.647085e-03
*     PA2 = 1.419397e-11
*     PTCA0 = 5.242437e+05
*     PTCA1 = 7.545345e+00
*     PTCA2 = -1.835354e-01
*     PTCB0 = 2.537125e+01
*     PTCB1 = -1.750000e-03
*     PTCB2 = 0.000000e+00
*     PTEMPA0 = -5.753989e+01
*     PTEMPA1 = 5.235813e+01
*     PTEMPA2 = -4.015521e-02
*     POFFSET = 0.000000e+00
* volt 0: offset = -4.682842e-02, slope = 1.249147e+00
* volt 1: offset = -4.695158e-02, slope = 1.248145e+00
* volt 2: offset = -4.685263e-02, slope = 1.248783e+00
* volt 3: offset = -4.690316e-02, slope = 1.249508e+00
*     EXTFREQSF = 1.000002e+00
* dh
* cast  46 10 Jul 2007 06:15:03 samples 41787 to 42013, avg = 4, stop = mag switch
* S> 
# nquan = 10
# nvalues = 89                          
# units = specified
# name 0 = depSM: Depth [salt water, m]
# name 1 = tv290C: Temperature [ITS-90, deg C]
# name 2 = sal00: Salinity [PSU]
# name 3 = sbeox0Mg/L: Oxygen, SBE 43 [mg/l]
# name 4 = sbeox0PS: Oxygen, SBE 43 [% saturation]
# name 5 = sigma-t00: Density [sigma-t, Kg/m^3 ]
# name 6 = par: PAR/Irradiance, Biospherical/Licor
# name 7 = prdM: Pressure, Strain Gauge [db]
# name 8 = flECO-AFL: Fluorescence, Wetlab ECO-AFL/FL [mg/m^3]
# name 9 = flag: flag
# span 0 =      1.000,     46.000       
# span 1 =     8.4566,     9.5573       
# span 2 =    30.2218,    31.0770       
# span 3 =    8.57434,   11.52045       
# span 4 =   90.98100,  101.78461       
# span 5 =    23.2951,    24.1287       
# span 6 = 1.5441e+00, 2.7996e+01       
# span 7 =      1.939,     44.669       
# span 8 =     0.6001,     5.5053       
# span 9 = 0.0000e+00, 0.0000e+00       
# interval = meters: 1                  
# start_time = Jul 10 2007 06:15:03
# bad_flag = -9.990e-29
# sensor 0 = Frequency 0  temperature, 5061, 05-Oct-06
# sensor 1 = Frequency 1  conductivity, 5061, 05-Oct-06, cpcor = -9.5700e-08
# sensor 2 = Pressure Number
# sensor 3 = Extrnl Volt  0  irradiance (PAR), primary, 4751, 08/10/06
# sensor 4 = Extrnl Volt  1  Oxygen, SBE, primary, 1081, 10/24/06
# sensor 5 = Extrnl Volt  2  WET Labs, ECO_AFL
# sensor 6 = Extrnl Volt  3  userpoly 0, 0627, 10/11/06
# datcnv_date = Oct 15 2007 14:49:45, 5.37e
# datcnv_in = I:\bob d\OTF_GEM\2007\ctd-07046.hex I:\Willette\OTF\CTD\5061.con
# datcnv_skipover = 0
# filter_date = Oct 15 2007 15:02:24, 5.37e
# filter_in = I:\Willette\OTF\CTD\2007\CTD Data\ctd-07046.cnv
# filter_low_pass_tc_A = 1.000
# filter_low_pass_tc_B = 0.150
# filter_low_pass_A_vars = prdM
# filter_low_pass_B_vars =
# loopedit_date = Oct 15 2007 15:06:46, 5.37e
# loopedit_in = I:\Willette\OTF\CTD\2007\CTD Data\ctd-07046.cnv
# loopedit_minVelocity = 0.250                                                                                            
# loopedit_surfaceSoak: minDepth = 5.0, maxDepth = 20, useDeckPress = 1                                                   
# loopedit_excl_bad_scans = yes
# alignctd_date = Oct 15 2007 15:14:15, 5.37e
# alignctd_in = I:\Willette\OTF\CTD\2007\CTD Data\ctd-07046.cnv
# alignctd_adv = tv290C 0.500, sbeox0Mg/L 4.000, sbeox0PS 4.000                                                                                                                                                                      
# binavg_date = Oct 15 2007 15:18:43, 5.37e
# binavg_in = I:\Willette\OTF\CTD\2007\CTD Data\ctd-07046.cnv
# binavg_bintype = meters
# binavg_binsize = 1
# binavg_excl_bad_scans = yes
# binavg_skipover = 0
# binavg_surface_bin = no, min = 0.000, max = 0.000, value = 0.000
# file_type = ascii
*END*
      3.000     9.5573    30.2733    8.57434   90.98100    23.3297 1.4451e+01      4.285     0.6697 0.0000e+00
      4.000     9.5521    30.2453    8.72178   92.50003    23.3106 1.1471e+01      5.072     0.6846 0.0000e+00
      5.000     9.5456    30.2444    8.76571   92.98248    23.3115 8.9488e+00      5.792     0.6926 0.0000e+00
      6.000     9.5282    30.2440    8.73240   92.49792    23.3120 6.9199e+00      6.639     0.6941 0.0000e+00
      7.000     9.5090    30.2432    8.90014   94.21155    23.3124 5.5342e+00      7.392     0.6957 0.0000e+00
      8.000     9.4954    30.2484    9.06344   95.86945    23.3186 4.5065e+00      8.095     0.6891 0.0000e+00
      9.000     9.4729    30.2666    9.18453   97.06661    23.3357 3.6131e+00      8.865     0.6681 0.0000e+00
     10.000     9.4438    30.2810    9.29810   98.15514    23.3507 2.8656e+00     10.007     0.6493 0.0000e+00
     11.000     9.4671    30.2874    9.35119   98.69052    23.3598 2.4244e+00     10.777     0.6617 0.0000e+00
     12.000     9.4412    30.3229    9.40737   99.04823    23.3888 2.0732e+00     11.914     0.6673 0.0000e+00
     13.000     9.4249    30.2907    9.44857   99.49583    23.3637 1.8718e+00     13.193     0.6638 0.0000e+00
     14.000     9.4262    30.3180    9.47004   99.71454    23.3886 1.7626e+00     14.005     0.6583 0.0000e+00
     15.000     9.4021    30.3227    9.49354   99.90891    23.3927 1.6800e+00     15.028     0.6468 0.0000e+00
     16.000     9.3577    30.3178    9.51428  100.04603    23.3894 1.6278e+00     16.094     0.6458 0.0000e+00
     17.000     9.3535    30.3542    9.52766  100.13899    23.4234 1.5999e+00     16.752     0.6534 0.0000e+00
     18.000     9.2504    30.3770    9.55472  100.40520    23.4468 1.5765e+00     18.142     0.6571 0.0000e+00
     19.000     9.1761    30.4247    9.57049  100.52100    23.4957 1.5652e+00     19.098     0.6824 0.0000e+00
     20.000     9.1092    30.4971    9.58734  100.53295    23.5663 1.5590e+00     20.296     0.6456 0.0000e+00
     21.000     9.0104    30.5461    9.59322  100.40901    23.6142 1.5548e+00     21.190     0.6068 0.0000e+00
     22.000     8.9683    30.5903    9.61394  100.70559    23.6575 1.5529e+00     22.087     0.6489 0.0000e+00
     23.000     8.9793    30.6889    9.62495  100.74981    23.7531 1.5512e+00     23.178     0.6220 0.0000e+00
     24.000     8.9545    30.6552    9.63545  100.81745    23.7205 1.5509e+00     24.153     0.6562 0.0000e+00
     25.000     8.8965    30.6644    9.65087  101.02854    23.7299 1.5503e+00     25.258     0.6307 0.0000e+00
     26.000     8.8661    30.7085    9.66362  101.17953    23.7727 1.5468e+00     26.173     0.6451 0.0000e+00
     27.000     8.8629    30.7458    9.67077  101.21072    23.8089 1.5441e+00     27.134     0.6411 0.0000e+00
     28.000     8.8202    30.7498    9.67661  101.24998    23.8129 1.5496e+00     28.321     0.6264 0.0000e+00
     29.000     8.7022    30.7722    9.68125  101.27859    23.8347 1.5500e+00     29.237     0.6032 0.0000e+00
     30.000     8.6631    30.8254    9.67530  101.20616    23.8863 1.5513e+00     30.026     0.6177 0.0000e+00
     31.000     8.6641    30.9004    9.68340  101.24448    23.9584 1.5504e+00     31.091     0.6251 0.0000e+00
     32.000     8.6258    30.8896    9.69666  101.31444    23.9485 1.5500e+00     32.091     0.6001 0.0000e+00
     33.000     8.6406    30.9530    9.70179  101.25803    24.0092 1.5502e+00     33.501     0.6274 0.0000e+00
     34.000     8.6464    30.9247    9.71425  101.40441    23.9820 1.5499e+00     34.273     0.6441 0.0000e+00
     35.000     8.6041    30.9127    9.72456  101.46477    23.9711 1.5501e+00     35.940     0.6777 0.0000e+00
     36.000     8.6123    30.9359    9.73470  101.57154    23.9932 1.5495e+00     36.555     0.6198 0.0000e+00
     37.000     8.6066    30.9441    9.73712  101.59849    24.0013 1.5496e+00     37.512     0.6310 0.0000e+00
     38.000     8.5954    30.9522    9.73740  101.60295    24.0090 1.5497e+00     38.162     1.8969 0.0000e+00
     39.000     8.5701    30.9587    9.73837  101.61292    24.0153 1.5496e+00     39.133     3.1257 0.0000e+00
     40.000     8.5334    30.9791    9.73585  101.58748    24.0350 1.5496e+00     40.067     3.3293 0.0000e+00
     41.000     8.4859    31.0028    9.73044  101.53132    24.0579 1.5491e+00     40.972     3.1380 0.0000e+00
     42.000     8.4772    31.0530    9.73792  101.61619    24.1059 1.5495e+00     41.967     3.0710 0.0000e+00
     43.000     8.4679    31.0572    9.73397  101.58397    24.1099 1.5494e+00     42.821     2.9889 0.0000e+00
     44.000     8.4580    31.0722    9.72076  101.45847    24.1242 1.5493e+00     43.766     2.9818 0.0000e+00
     45.000     8.4581    31.0766    9.71243  101.40762    24.1287 1.5497e+00     44.669     2.9003 0.0000e+00
     46.000     8.4566    31.0770    9.71572  101.43953    24.1287 1.5501e+00     44.628     3.0022 0.0000e+00
     45.000     8.4633    31.0754    9.72650  101.66510    24.1274 1.5478e+00     44.063     3.0705 0.0000e+00
     44.000     8.4673    31.0728    9.71594  101.65204    24.1249 1.5480e+00     43.395     3.2028 0.0000e+00
     43.000     8.4698    31.0697    9.70318  101.46588    24.1219 1.5492e+00     42.701     3.4386 0.0000e+00
     42.000     8.4702    31.0656    9.69931  101.43441    24.1182 1.5484e+00     42.108     3.6479 0.0000e+00
     41.000     8.4790    31.0648    9.70056  101.54587    24.1173 1.5489e+00     41.211     3.5622 0.0000e+00
     40.000     8.4882    31.0616    9.69828  101.74566    24.1144 1.5485e+00     40.387     3.4057 0.0000e+00
     39.000     8.4925    31.0483    9.69092  101.78461    24.1018 1.5492e+00     39.315     4.4379 0.0000e+00
     38.000     8.4891    31.0448    9.67700  101.65899    24.0983 1.5489e+00     38.473     4.7844 0.0000e+00
     37.000     8.4977    31.0462    9.66442  101.53094    24.0997 1.5487e+00     37.529     5.2752 0.0000e+00
     36.000     8.5418    31.0451    9.65616  101.47154    24.0987 1.5485e+00     36.552     5.5053 0.0000e+00
     35.000     8.5949    31.0149    9.64653  101.38048    24.0699 1.5488e+00     35.559     5.1380 0.0000e+00
     34.000     8.5807    30.9391    9.65164  101.38454    23.9973 1.5489e+00     34.465     3.8029 0.0000e+00
     33.000     8.6215    30.9635    9.65003  101.14930    24.0204 1.5494e+00     33.541     1.4770 0.0000e+00
     32.000     8.7629    30.9315    9.66079  101.45602    23.9895 1.5497e+00     32.563     0.9267 0.0000e+00
     31.000     8.8321    30.8126    9.65616  101.57254    23.8750 1.5512e+00     31.466     0.8898 0.0000e+00
     30.000     8.8480    30.7600    9.63566  101.39758    23.8240 1.5490e+00     30.343     0.8955 0.0000e+00
     29.000     8.8662    30.7543    9.63515  101.44067    23.8183 1.5481e+00     29.516     0.9014 0.0000e+00
     28.000     8.7865    30.7434    9.63635  101.45197    23.8077 1.5489e+00     28.261     0.8692 0.0000e+00
     27.000     8.7260    30.9126    9.62052  101.30789    23.9699 1.5450e+00     26.981     0.8308 0.0000e+00
     26.000     8.8879    30.8258    9.62445  101.43549    23.8871 1.5476e+00     26.425     0.8410 0.0000e+00
     25.000     8.9428    30.6924    9.62419  101.51366    23.7584 1.5479e+00     25.326     0.8234 0.0000e+00
     24.000     8.9701    30.6772    9.62336  101.65022    23.7434 1.5486e+00     24.221     0.8127 0.0000e+00
     23.000     8.9760    30.6512    9.61303  101.67158    23.7179 1.5490e+00     23.209     0.8293 0.0000e+00
     22.000     8.9872    30.6616    9.60165  101.70859    23.7279 1.5497e+00     22.136     0.8064 0.0000e+00
     21.000     9.0451    30.6301    9.58670  101.69991    23.6973 1.5517e+00     21.103     0.8051 0.0000e+00
     20.000     9.0863    30.5937    9.57042  101.55788    23.6618 1.5547e+00     20.112     0.8533 0.0000e+00
     19.000     9.1578    30.5480    9.55667  101.42218    23.6172 1.5595e+00     18.961     0.8211 0.0000e+00
     18.000     9.2145    30.5121    9.55439  101.40836    23.5823 1.5697e+00     18.137     0.8018 0.0000e+00
     17.000     9.3247    30.4571    9.56101  101.49894    23.5283 1.5833e+00     16.765     0.8392 0.0000e+00
     16.000     9.3324    30.4052    9.56559  101.57766    23.4778 1.6131e+00     16.137     0.8228 0.0000e+00
     15.000     9.4411    30.3578    9.56061  101.57470    23.4317 1.6592e+00     14.576     0.8082 0.0000e+00
     14.000     9.4236    30.3269    9.56483  101.63276    23.4012 1.7459e+00     14.182     0.8236 0.0000e+00
     13.000     9.4250    30.3095    9.56098  101.60236    23.3841 1.8622e+00     13.125     0.8221 0.0000e+00
     12.000     9.4262    30.3043    9.55251  101.55366    23.3788 2.0530e+00     12.095     0.8336 0.0000e+00
     11.000     9.4347    30.3031    9.55084  101.57955    23.3776 2.3254e+00     11.012     0.8334 0.0000e+00
     10.000     9.4429    30.2977    9.53678  101.43258    23.3722 2.7855e+00     10.039     0.8563 0.0000e+00
      9.000     9.4678    30.2912    9.52413  101.29776    23.3658 3.4067e+00      8.963     0.8410 0.0000e+00
      8.000     9.4878    30.2722    9.41310  100.10481    23.3466 4.1870e+00      7.765     0.8232 0.0000e+00
      7.000     9.4905    30.2667   10.59114  100.02899    23.3409 5.3951e+00      7.144     0.8230 0.0000e+00
      6.000     9.5040    30.2429   11.52045  100.34371    23.3178 6.5194e+00      4.860     0.7716 0.0000e+00
      5.000     9.5082    30.2572   11.00382  100.20142    23.3313 8.9744e+00      5.242     0.8105 0.0000e+00
      4.000     9.5396    30.2486   11.30565  100.29226    23.3221 1.1703e+01      4.033     0.8178 0.0000e+00
      3.000     9.5446    30.2363   11.31494  100.29377    23.3098 1.5691e+01      3.498     0.8176 0.0000e+00
      2.000     9.5460    30.2218   11.35302  100.24920    23.2951 2.0116e+01      2.345     0.8371 0.0000e+00
      1.000     9.5471    30.2235   11.32406  100.26356    23.2969 2.7996e+01      1.939     0.8123 0.0000e+00
