* Sea-Bird SBE19plus Data File:
* FileName = C:\data\otf\2007\ctd-07063.hex
* Software Version 1.55
* Temperature SN =  5061
* Conductivity SN =  5061
* System UpLoad Time = Aug 15 2007 16:14:37
* ds
* SeacatPlus V 1.6a  SERIAL NO. 5061    15 Aug 2007  15:31:53
* vbatt = 10.9, vlith =  8.7, ioper =  61.6 ma, ipump =  57.5 ma, 
* iext01 =  95.2 ma
* iext23 =  58.1 ma
* 
* status = not logging
* number of scans to average = 1
* samples = 153039, free = 288466, casts = 154
* mode = profile, minimum cond freq = 3000, pump delay = 60 sec
* autorun = no, ignore magnetic switch = no
* battery type = alkaline, battery cutoff =  7.3 volts
* pressure sensor = strain gauge, range = 870.0
* SBE 38 = no, Gas Tension Device = no
* Ext Volt 0 = yes, Ext Volt 1 = yes, Ext Volt 2 = yes, Ext Volt 3 = yes
* echo commands = yes
* output format = raw HEX
* S>
* 
* SeacatPlus V 1.6a  SERIAL NO. 5061    15 Aug 2007  15:32:18
* temperature:  05-oct-06
*     TA0 = 1.254184e-03
*     TA1 = 2.596730e-04
*     TA2 = 5.165612e-07
*     TA3 = 1.318931e-07
*     TOFFSET = 0.000000e+00
* conductivity:  05-oct-06
*     G = -9.978144e-01
*     H = 1.555200e-01
*     I = -4.839108e-04
*     J = 6.121100e-05
*     CF0 = 2.539936e+03
*     CPCOR = -9.570000e-08
*     CTCOR = 3.250000e-06
*     CSLOPE = 1.000000e+00
* pressure S/N = 2362539, range = 870 psia:  24-aug-06
*     PA0 = 2.171091e-01
*     PA1 = 2.647085e-03
*     PA2 = 1.419397e-11
*     PTCA0 = 5.242437e+05
*     PTCA1 = 7.545345e+00
*     PTCA2 = -1.835354e-01
*     PTCB0 = 2.537125e+01
*     PTCB1 = -1.750000e-03
*     PTCB2 = 0.000000e+00
*     PTEMPA0 = -5.753989e+01
*     PTEMPA1 = 5.235813e+01
*     PTEMPA2 = -4.015521e-02
*     POFFSET = 0.000000e+00
* volt 0: offset = -4.682842e-02, slope = 1.249147e+00
* volt 1: offset = -4.695158e-02, slope = 1.248145e+00
* volt 2: offset = -4.685263e-02, slope = 1.248783e+00
* volt 3: offset = -4.690316e-02, slope = 1.249508e+00
*     EXTFREQSF = 1.000002e+00
* dh
* cast  63 12 Jul 2007 12:42:13 samples 46539 to 46734, avg = 4, stop = mag switch
* S> 
# nquan = 10
# nvalues = 86                          
# units = specified
# name 0 = depSM: Depth [salt water, m]
# name 1 = tv290C: Temperature [ITS-90, deg C]
# name 2 = sal00: Salinity [PSU]
# name 3 = sbeox0Mg/L: Oxygen, SBE 43 [mg/l]
# name 4 = sbeox0PS: Oxygen, SBE 43 [% saturation]
# name 5 = sigma-t00: Density [sigma-t, Kg/m^3 ]
# name 6 = par: PAR/Irradiance, Biospherical/Licor
# name 7 = prdM: Pressure, Strain Gauge [db]
# name 8 = flECO-AFL: Fluorescence, Wetlab ECO-AFL/FL [mg/m^3]
# name 9 = flag: flag
# span 0 =      1.000,     45.000       
# span 1 =     8.5170,     8.5343       
# span 2 =    31.6183,    31.6541       
# span 3 =    9.11992,   11.64008       
# span 4 =   95.64995,  104.30460       
# span 5 =    24.5430,    24.5698       
# span 6 = 2.0793e+00, 7.6014e+02       
# span 7 =      1.748,     44.267       
# span 8 =     0.8057,     1.5772       
# span 9 = 0.0000e+00, 0.0000e+00       
# interval = meters: 1                  
# start_time = Jul 12 2007 12:42:13
# bad_flag = -9.990e-29
# sensor 0 = Frequency 0  temperature, 5061, 05-Oct-06
# sensor 1 = Frequency 1  conductivity, 5061, 05-Oct-06, cpcor = -9.5700e-08
# sensor 2 = Pressure Number
# sensor 3 = Extrnl Volt  0  irradiance (PAR), primary, 4751, 08/10/06
# sensor 4 = Extrnl Volt  1  Oxygen, SBE, primary, 1081, 10/24/06
# sensor 5 = Extrnl Volt  2  WET Labs, ECO_AFL
# sensor 6 = Extrnl Volt  3  userpoly 0, 0627, 10/11/06
# datcnv_date = Oct 15 2007 14:49:45, 5.37e
# datcnv_in = I:\bob d\OTF_GEM\2007\ctd-07063.hex I:\Willette\OTF\CTD\5061.con
# datcnv_skipover = 0
# filter_date = Oct 15 2007 15:02:25, 5.37e
# filter_in = I:\Willette\OTF\CTD\2007\CTD Data\ctd-07063.cnv
# filter_low_pass_tc_A = 1.000
# filter_low_pass_tc_B = 0.150
# filter_low_pass_A_vars = prdM
# filter_low_pass_B_vars =
# loopedit_date = Oct 15 2007 15:06:47, 5.37e
# loopedit_in = I:\Willette\OTF\CTD\2007\CTD Data\ctd-07063.cnv
# loopedit_minVelocity = 0.250                                                                                            
# loopedit_surfaceSoak: minDepth = 5.0, maxDepth = 20, useDeckPress = 1                                                   
# loopedit_excl_bad_scans = yes
# alignctd_date = Oct 15 2007 15:14:15, 5.37e
# alignctd_in = I:\Willette\OTF\CTD\2007\CTD Data\ctd-07063.cnv
# alignctd_adv = tv290C 0.500, sbeox0Mg/L 4.000, sbeox0PS 4.000                                                                                                                                                                      
# binavg_date = Oct 15 2007 15:18:44, 5.37e
# binavg_in = I:\Willette\OTF\CTD\2007\CTD Data\ctd-07063.cnv
# binavg_bintype = meters
# binavg_binsize = 1
# binavg_excl_bad_scans = yes
# binavg_skipover = 0
# binavg_surface_bin = no, min = 0.000, max = 0.000, value = 0.000
# file_type = ascii
*END*
      4.000     8.5328    31.6513    9.28182   97.35963    24.5667 1.8195e+02      4.798     1.0459 0.0000e+00
      5.000     8.5333    31.6522    9.23946   96.91624    24.5682 1.7777e+02      5.561     1.1069 0.0000e+00
      6.000     8.5333    31.6541    9.20944   96.59921    24.5698 1.6260e+02      6.449     1.1010 0.0000e+00
      7.000     8.5340    31.6447    9.11992   95.64995    24.5620 1.5191e+02      7.444     1.1414 0.0000e+00
      8.000     8.5343    31.6478    9.20829   96.57668    24.5646 1.4103e+02      8.440     1.2803 0.0000e+00
      9.000     8.5298    31.6419    9.23496   96.85001    24.5597 1.2983e+02      9.507     1.3591 0.0000e+00
     10.000     8.5275    31.6374    9.31482   97.68731    24.5565 1.1625e+02     10.388     1.3374 0.0000e+00
     11.000     8.5268    31.6363    9.38687   98.44271    24.5562 1.0380e+02     11.255     1.4428 0.0000e+00
     12.000     8.5264    31.6360    9.42327   98.81703    24.5563 9.1050e+01     12.101     1.5090 0.0000e+00
     13.000     8.5285    31.6353    9.51620   99.78825    24.5559 7.9499e+01     12.931     1.5110 0.0000e+00
     14.000     8.5289    31.6407    9.62915  100.97274    24.5602 6.8706e+01     13.912     1.4931 0.0000e+00
     15.000     8.5283    31.6343    9.72283  101.95511    24.5546 5.9031e+01     15.110     1.4733 0.0000e+00
     16.000     8.5303    31.6353    9.75314  102.27432    24.5555 5.0970e+01     16.075     1.4833 0.0000e+00
     17.000     8.5292    31.6342    9.79159  102.67858    24.5544 4.3072e+01     17.344     1.4532 0.0000e+00
     18.000     8.5291    31.6393    9.81194  102.89130    24.5586 3.6859e+01     18.522     1.4231 0.0000e+00
     19.000     8.5256    31.6303    9.82964  103.07750    24.5513 3.1950e+01     19.799     1.4009 0.0000e+00
     20.000     8.5268    31.6284    9.83255  103.10894    24.5504 2.8008e+01     20.706     1.3551 0.0000e+00
     21.000     8.5231    31.6338    9.84566  103.24714    24.5550 2.4224e+01     21.787     1.3304 0.0000e+00
     22.000     8.5246    31.6265    9.85724  103.36848    24.5490 2.1261e+01     22.815     1.3750 0.0000e+00
     23.000     8.5255    31.6270    9.86700  103.47069    24.5498 1.8750e+01     23.631     1.4102 0.0000e+00
     24.000     8.5229    31.6270    9.87091  103.51182    24.5497 1.6327e+01     24.579     1.4259 0.0000e+00
     25.000     8.5215    31.6225    9.86657  103.46687    24.5460 1.4300e+01     25.625     1.4440 0.0000e+00
     26.000     8.5217    31.6189    9.86879  103.49118    24.5435 1.2604e+01     26.482     1.4014 0.0000e+00
     27.000     8.5217    31.6186    9.87387  103.54499    24.5434 1.1046e+01     27.386     1.3819 0.0000e+00
     28.000 -9.990e-29 -9.990e-29 -9.990e-29 -9.990e-29 -9.990e-29 -9.990e-29 -9.990e-29 -9.990e-29 -9.990e-29
     29.000     8.5221    31.6191    9.88647  103.67751    24.5439 8.9749e+00     28.901     1.3907 0.0000e+00
     30.000     8.5226    31.6191    9.89438  103.76127    24.5439 7.5541e+00     30.317     1.4526 0.0000e+00
     31.000     8.5229    31.6191    9.88949  103.71025    24.5438 6.7454e+00     31.186     1.4002 0.0000e+00
     32.000     8.5227    31.6190    9.89118  103.72788    24.5437 6.0264e+00     32.174     1.4021 0.0000e+00
     33.000     8.5225    31.6187    9.89329  103.74969    24.5434 5.4106e+00     33.050     1.3926 0.0000e+00
     34.000     8.5226    31.6187    9.89556  103.77304    24.5434 4.8507e+00     34.060     1.4676 0.0000e+00
     35.000     8.5229    31.6188    9.89636  103.78118    24.5436 4.3968e+00     35.005     1.4365 0.0000e+00
     36.000 -9.990e-29 -9.990e-29 -9.990e-29 -9.990e-29 -9.990e-29 -9.990e-29 -9.990e-29 -9.990e-29 -9.990e-29
     37.000     8.5235    31.6190    9.89879  103.80621    24.5437 3.7737e+00     36.440     1.4128 0.0000e+00
     38.000     8.5235    31.6196    9.89959  103.81564    24.5441 3.3118e+00     37.861     1.4573 0.0000e+00
     39.000     8.5234    31.6184    9.90200  103.84356    24.5431 3.0512e+00     38.836     1.3760 0.0000e+00
     40.000     8.5235    31.6187    9.90496  103.87413    24.5433 2.8397e+00     39.671     1.4081 0.0000e+00
     41.000     8.5236    31.6188    9.91387  103.96729    24.5434 2.6437e+00     40.503     1.4161 0.0000e+00
     42.000     8.5247    31.6188    9.91422  103.96902    24.5434 2.4805e+00     41.508     1.3883 0.0000e+00
     43.000     8.5244    31.6191    9.91669  103.99582    24.5437 2.3505e+00     42.098     1.3987 0.0000e+00
     44.000     8.5248    31.6188    9.91905  104.01903    24.5433 2.2218e+00     42.949     1.3253 0.0000e+00
     45.000     8.5250    31.6186    9.91583  103.98523    24.5430 2.0793e+00     44.267     1.3512 0.0000e+00
     44.000     8.5246    31.6187    9.91201  103.94422    24.5430 2.3118e+00     43.892     1.3625 0.0000e+00
     43.000     8.5239    31.6185    9.89784  103.79615    24.5431 2.4063e+00     43.082     1.3387 0.0000e+00
     42.000     8.5247    31.6190    9.91545  103.98096    24.5435 2.5274e+00     42.270     1.4029 0.0000e+00
     41.000     8.5248    31.6188    9.92652  104.09563    24.5432 2.6376e+00     41.261     1.3537 0.0000e+00
     40.000     8.5246    31.6188    9.92948  104.12497    24.5432 2.7405e+00     40.264     1.3576 0.0000e+00
     39.000     8.5242    31.6187    9.92734  104.10087    24.5431 2.8627e+00     39.353     1.3566 0.0000e+00
     38.000     8.5242    31.6188    9.93157  104.14611    24.5433 2.9843e+00     38.383     1.4400 0.0000e+00
     37.000     8.5243    31.6186    9.94038  104.23816    24.5432 3.1236e+00     37.293     1.4265 0.0000e+00
     36.000     8.5244    31.6187    9.93230  104.15331    24.5432 3.3071e+00     36.305     1.3884 0.0000e+00
     35.000     8.5239    31.6187    9.92635  104.09073    24.5432 3.5443e+00     35.314     1.4031 0.0000e+00
     34.000     8.5231    31.6186    9.92861  104.11338    24.5432 3.8282e+00     34.234     1.4052 0.0000e+00
     33.000     8.5228    31.6183    9.93095  104.13684    24.5431 4.1843e+00     33.140     1.3605 0.0000e+00
     32.000     8.5224    31.6184    9.93035  104.12997    24.5432 4.6255e+00     32.316     1.4259 0.0000e+00
     31.000     8.5227    31.6190    9.92968  104.12370    24.5437 5.1523e+00     31.271     1.4284 0.0000e+00
     30.000     8.5228    31.6184    9.93187  104.14694    24.5432 5.7844e+00     30.181     1.4037 0.0000e+00
     29.000     8.5226    31.6185    9.92913  104.11804    24.5432 6.5633e+00     29.232     1.5234 0.0000e+00
     28.000     8.5220    31.6190    9.92710  104.09625    24.5437 7.4531e+00     28.266     1.3655 0.0000e+00
     27.000     8.5220    31.6184    9.92712  104.09596    24.5433 8.5528e+00     27.208     1.4004 0.0000e+00
     26.000     8.5216    31.6188    9.93653  104.19680    24.5436 9.9392e+00     26.180     1.4111 0.0000e+00
     25.000     8.5213    31.6191    9.94019  104.23621    24.5439 1.1488e+01     25.305     1.4014 0.0000e+00
     24.000     8.5218    31.6184    9.93598  104.18962    24.5434 1.3306e+01     24.081     1.3734 0.0000e+00
     23.000     8.5217    31.6183    9.93861  104.21508    24.5433 1.5506e+01     23.250     1.3797 0.0000e+00
     22.000     8.5215    31.6188    9.94402  104.27250    24.5437 1.8157e+01     22.226     1.3310 0.0000e+00
     21.000     8.5217    31.6186    9.94526  104.28277    24.5436 2.1368e+01     21.168     1.3274 0.0000e+00
     20.000     8.5211    31.6186    9.94391  104.26668    24.5435 2.5007e+01     20.147     1.4719 0.0000e+00
     19.000     8.5214    31.6192    9.94022  104.22449    24.5441 2.9280e+01     19.195     1.3767 0.0000e+00
     18.000     8.5224    31.6195    9.93371  104.15624    24.5443 3.4337e+01     18.156     1.3545 0.0000e+00
     17.000     8.5217    31.6198    9.94103  104.23431    24.5443 4.0489e+01     17.123     1.4080 0.0000e+00
     16.000     8.5206    31.6198    9.94275  104.25257    24.5445 4.7608e+01     16.176     1.3738 0.0000e+00
     15.000     8.5204    31.6200    9.94223  104.24803    24.5447 5.6645e+01     15.155     1.4087 0.0000e+00
     14.000     8.5200    31.6204    9.94750  104.30460    24.5451 6.6965e+01     14.140     1.4571 0.0000e+00
     13.000     8.5189    31.6199    9.93814  104.20553    24.5448 7.9905e+01     13.102     1.5772 0.0000e+00
     12.000     8.5177    31.6201    9.92745  104.09271    24.5451 9.4425e+01     12.120     1.4661 0.0000e+00
     11.000     8.5170    31.6197    9.91922  104.00515    24.5450 1.1603e+02     11.101     1.5375 0.0000e+00
     10.000     8.5171    31.6205    9.91843  103.99812    24.5456 1.4111e+02     10.093     1.5723 0.0000e+00
      9.000     8.5176    31.6208    9.91827  104.00190    24.5459 1.6855e+02      9.127     1.4905 0.0000e+00
      8.000     8.5176    31.6204    9.90887  103.91148    24.5455 2.0035e+02      8.120     1.4281 0.0000e+00
      7.000     8.5188    31.6205    9.61705  100.86562    24.5456 2.3456e+02      7.092     1.3187 0.0000e+00
      6.000     8.5186    31.6207   11.14020  100.73305    24.5456 2.7213e+02      6.114     1.2806 0.0000e+00
      5.000     8.5179    31.6201   11.47118  101.06035    24.5452 3.0732e+02      5.148     1.1819 0.0000e+00
      4.000     8.5175    31.6205   11.53632  101.04184    24.5456 3.5303e+02      4.221     1.0473 0.0000e+00
      3.000     8.5174    31.6202   11.36795  100.98351    24.5454 3.8668e+02      3.319     0.9141 0.0000e+00
      2.000     8.5190    31.6205   11.61888  100.90989    24.5456 4.1632e+02      2.448     0.8057 0.0000e+00
      1.000     8.5223    31.6208   11.64008  100.85361    24.5457 7.6014e+02      1.748     0.8186 0.0000e+00
