* Sea-Bird SBE19plus Data File:
* FileName = C:\data\otf\2007\ctd-07014.hex
* Software Version 1.55
* Temperature SN =  5061
* Conductivity SN =  5061
* System UpLoad Time = Aug 15 2007 15:44:27
* ds
* SeacatPlus V 1.6a  SERIAL NO. 5061    15 Aug 2007  15:31:53
* vbatt = 10.9, vlith =  8.7, ioper =  61.6 ma, ipump =  57.5 ma, 
* iext01 =  95.2 ma
* iext23 =  58.1 ma
* 
* status = not logging
* number of scans to average = 1
* samples = 153039, free = 288466, casts = 154
* mode = profile, minimum cond freq = 3000, pump delay = 60 sec
* autorun = no, ignore magnetic switch = no
* battery type = alkaline, battery cutoff =  7.3 volts
* pressure sensor = strain gauge, range = 870.0
* SBE 38 = no, Gas Tension Device = no
* Ext Volt 0 = yes, Ext Volt 1 = yes, Ext Volt 2 = yes, Ext Volt 3 = yes
* echo commands = yes
* output format = raw HEX
* S>
* 
* SeacatPlus V 1.6a  SERIAL NO. 5061    15 Aug 2007  15:32:18
* temperature:  05-oct-06
*     TA0 = 1.254184e-03
*     TA1 = 2.596730e-04
*     TA2 = 5.165612e-07
*     TA3 = 1.318931e-07
*     TOFFSET = 0.000000e+00
* conductivity:  05-oct-06
*     G = -9.978144e-01
*     H = 1.555200e-01
*     I = -4.839108e-04
*     J = 6.121100e-05
*     CF0 = 2.539936e+03
*     CPCOR = -9.570000e-08
*     CTCOR = 3.250000e-06
*     CSLOPE = 1.000000e+00
* pressure S/N = 2362539, range = 870 psia:  24-aug-06
*     PA0 = 2.171091e-01
*     PA1 = 2.647085e-03
*     PA2 = 1.419397e-11
*     PTCA0 = 5.242437e+05
*     PTCA1 = 7.545345e+00
*     PTCA2 = -1.835354e-01
*     PTCB0 = 2.537125e+01
*     PTCB1 = -1.750000e-03
*     PTCB2 = 0.000000e+00
*     PTEMPA0 = -5.753989e+01
*     PTEMPA1 = 5.235813e+01
*     PTEMPA2 = -4.015521e-02
*     POFFSET = 0.000000e+00
* volt 0: offset = -4.682842e-02, slope = 1.249147e+00
* volt 1: offset = -4.695158e-02, slope = 1.248145e+00
* volt 2: offset = -4.685263e-02, slope = 1.248783e+00
* volt 3: offset = -4.690316e-02, slope = 1.249508e+00
*     EXTFREQSF = 1.000002e+00
* dh
* cast  14 04 Jul 2007 09:27:54 samples 13986 to 29611, avg = 1, stop = mag switch
* S> 
# nquan = 10
# nvalues = 119                         
# units = specified
# name 0 = depSM: Depth [salt water, m]
# name 1 = tv290C: Temperature [ITS-90, deg C]
# name 2 = sal00: Salinity [PSU]
# name 3 = sbeox0Mg/L: Oxygen, SBE 43 [mg/l]
# name 4 = sbeox0PS: Oxygen, SBE 43 [% saturation]
# name 5 = sigma-t00: Density [sigma-t, Kg/m^3 ]
# name 6 = par: PAR/Irradiance, Biospherical/Licor
# name 7 = prdM: Pressure, Strain Gauge [db]
# name 8 = flECO-AFL: Fluorescence, Wetlab ECO-AFL/FL [mg/m^3]
# name 9 = flag: flag
# span 0 =      1.000,     62.000       
# span 1 =     7.5592,     7.6837       
# span 2 =    31.6341,    31.7764       
# span 3 =    8.59025,   11.87190       
# span 4 =   88.45548,  110.00957       
# span 5 =    24.6806,    24.8050       
# span 6 = 1.5542e+00, 2.7554e+02       
# span 7 =      1.095,     62.311       
# span 8 =     0.7510,     1.8400       
# span 9 = 0.0000e+00, 0.0000e+00       
# interval = meters: 1                  
# start_time = Jul 04 2007 09:27:54
# bad_flag = -9.990e-29
# sensor 0 = Frequency 0  temperature, 5061, 05-Oct-06
# sensor 1 = Frequency 1  conductivity, 5061, 05-Oct-06, cpcor = -9.5700e-08
# sensor 2 = Pressure Number
# sensor 3 = Extrnl Volt  0  irradiance (PAR), primary, 4751, 08/10/06
# sensor 4 = Extrnl Volt  1  Oxygen, SBE, primary, 1081, 10/24/06
# sensor 5 = Extrnl Volt  2  WET Labs, ECO_AFL
# sensor 6 = Extrnl Volt  3  userpoly 0, 0627, 10/11/06
# datcnv_date = Oct 15 2007 14:49:42, 5.37e
# datcnv_in = I:\bob d\OTF_GEM\2007\ctd-07014.hex I:\Willette\OTF\CTD\5061.con
# datcnv_skipover = 0
# filter_date = Oct 15 2007 15:02:19, 5.37e
# filter_in = I:\Willette\OTF\CTD\2007\CTD Data\ctd-07014.cnv
# filter_low_pass_tc_A = 1.000
# filter_low_pass_tc_B = 0.150
# filter_low_pass_A_vars = prdM
# filter_low_pass_B_vars =
# loopedit_date = Oct 15 2007 15:06:42, 5.37e
# loopedit_in = I:\Willette\OTF\CTD\2007\CTD Data\ctd-07014.cnv
# loopedit_minVelocity = 0.250                                                                                            
# loopedit_surfaceSoak: minDepth = 5.0, maxDepth = 20, useDeckPress = 1                                                   
# loopedit_excl_bad_scans = yes
# alignctd_date = Oct 15 2007 15:14:12, 5.37e
# alignctd_in = I:\Willette\OTF\CTD\2007\CTD Data\ctd-07014.cnv
# alignctd_adv = tv290C 0.500, sbeox0Mg/L 4.000, sbeox0PS 4.000                                                                                                                                                                      
# binavg_date = Oct 15 2007 15:18:41, 5.37e
# binavg_in = I:\Willette\OTF\CTD\2007\CTD Data\ctd-07014.cnv
# binavg_bintype = meters
# binavg_binsize = 1
# binavg_excl_bad_scans = yes
# binavg_skipover = 0
# binavg_surface_bin = no, min = 0.000, max = 0.000, value = 0.000
# file_type = ascii
*END*
      5.000     7.6520    31.6679    9.43110   96.98388    24.7066 1.7023e+02      5.098     0.9471 0.0000e+00
      6.000     7.6458    31.6627    9.28149   95.44228    24.7034 1.9153e+02      6.036     0.9328 0.0000e+00
      7.000     7.6428    31.6659    9.06901   93.26017    24.7065 1.6267e+02      6.896     1.0279 0.0000e+00
      8.000     7.6471    31.6935    8.77449   90.24369    24.7277 1.4066e+02      7.978     1.1224 0.0000e+00
      9.000     7.6466    31.6801    8.59025   88.45548    24.7172 1.2209e+02      9.111     1.1622 0.0000e+00
     10.000     7.6837    31.6684    8.70046   89.45574    24.7007 1.0276e+02     10.131     1.3664 0.0000e+00
     11.000     7.6479    31.6516    9.07229   93.21840    24.6921 9.1062e+01     11.171     1.2958 0.0000e+00
     12.000     7.6241    31.6684    9.27274   95.27162    24.7107 7.5242e+01     12.184     1.3043 0.0000e+00
     13.000     7.6197    31.6730    9.36917   96.25900    24.7153 6.3044e+01     13.126     1.2541 0.0000e+00
     14.000     7.6181    31.6721    9.41817   96.75688    24.7148 5.2919e+01     14.173     1.5013 0.0000e+00
     15.000     7.6138    31.6743    9.43762   96.95160    24.7171 4.4747e+01     15.114     1.4954 0.0000e+00
     16.000     7.6129    31.6798    9.45924   97.15590    24.7216 3.7364e+01     16.207     1.3524 0.0000e+00
     17.000     7.6075    31.6790    9.63042   98.90752    24.7215 3.2249e+01     17.151     1.4126 0.0000e+00
     18.000     7.6049    31.6839    9.79242  100.56825    24.7258 2.7355e+01     18.191     1.3926 0.0000e+00
     19.000     7.5972    31.6828    9.87385  101.40092    24.7259 2.3422e+01     19.196     1.3549 0.0000e+00
     20.000     7.5947    31.6872    9.91296  101.79922    24.7299 1.9970e+01     20.170     1.3876 0.0000e+00
     21.000     7.5915    31.6927    9.95546  102.23234    24.7346 1.6958e+01     21.284     1.4798 0.0000e+00
     22.000     7.5887    31.6974    9.96710  102.34968    24.7386 1.4541e+01     22.196     1.3205 0.0000e+00
     23.000     7.5863    31.7025    9.97761  102.45403    24.7430 1.2321e+01     23.232     1.2160 0.0000e+00
     24.000     7.5837    31.7071    9.99225  102.60217    24.7469 1.0521e+01     24.308     1.1971 0.0000e+00
     25.000     7.5814    31.7115    9.99840  102.66374    24.7507 8.9391e+00     25.187     1.3034 0.0000e+00
     26.000     7.5790    31.7164    9.99191  102.59701    24.7550 7.5246e+00     26.267     1.3774 0.0000e+00
     27.000     7.5768    31.7206    9.99261  102.60429    24.7586 6.4050e+00     27.291     1.4700 0.0000e+00
     28.000     7.5755    31.7238    9.99031  102.57895    24.7613 5.4666e+00     28.193     1.3576 0.0000e+00
     29.000     7.5749    31.7254    9.99093  102.58615    24.7627 4.6475e+00     29.292     1.2509 0.0000e+00
     30.000     7.5734    31.7288    9.98541  102.52877    24.7656 4.0466e+00     30.315     1.4090 0.0000e+00
     31.000     7.5723    31.7332    9.98980  102.57364    24.7692 3.5487e+00     31.219     1.3746 0.0000e+00
     32.000     7.5716    31.7351   10.00989  102.78091    24.7707 3.1518e+00     32.363     1.4316 0.0000e+00
     33.000     7.5704    31.7391   10.01074  102.78771    24.7741 2.8450e+00     33.276     1.4156 0.0000e+00
     34.000     7.5698    31.7415   10.02099  102.89280    24.7760 2.5923e+00     34.291     1.3918 0.0000e+00
     35.000     7.5684    31.7455   10.03181  103.00393    24.7793 2.3911e+00     35.388     1.5335 0.0000e+00
     36.000     7.5668    31.7507   10.02953  102.98064    24.7836 2.2364e+00     36.273     1.3807 0.0000e+00
     37.000     7.5668    31.7512   10.03761  103.06343    24.7842 2.1028e+00     37.377     1.5661 0.0000e+00
     38.000     7.5662    31.7525   10.04729  103.16196    24.7852 2.0072e+00     38.351     1.4717 0.0000e+00
     39.000     7.5654    31.7552   10.01865  102.86817    24.7874 1.9223e+00     39.345     1.4922 0.0000e+00
     40.000     7.5645    31.7582   10.05184  103.20948    24.7899 1.8537e+00     40.462     1.4616 0.0000e+00
     41.000     7.5641    31.7595   10.07446  103.44080    24.7910 1.8011e+00     41.351     1.3831 0.0000e+00
     42.000     7.5636    31.7609   10.08267  103.52573    24.7922 1.7550e+00     42.418     1.2017 0.0000e+00
     43.000     7.5625    31.7646   10.07876  103.48474    24.7952 1.7185e+00     43.438     1.6663 0.0000e+00
     44.000     7.5616    31.7677   10.07511  103.44752    24.7978 1.6888e+00     44.373     1.4984 0.0000e+00
     45.000     7.5608    31.7704   10.08061  103.50383    24.7999 1.6642e+00     45.503     1.4389 0.0000e+00
     46.000     7.5600    31.7739   10.08374  103.53584    24.8029 1.6459e+00     46.423     1.4427 0.0000e+00
     47.000     7.5600    31.7739   10.07891  103.48693    24.8029 1.6293e+00     47.435     1.2869 0.0000e+00
     48.000     7.5599    31.7743   10.07801  103.47689    24.8033 1.6161e+00     48.491     1.2822 0.0000e+00
     49.000     7.5604    31.7730   10.07961  103.49328    24.8022 1.6048e+00     49.425     1.2317 0.0000e+00
     50.000     7.5597    31.7745   10.08345  103.53268    24.8033 1.5952e+00     50.528     1.2887 0.0000e+00
     51.000     7.5592    31.7763   10.09239  103.62487    24.8048 1.5876e+00     51.488     1.3527 0.0000e+00
     52.000     7.5592    31.7763   10.08688  103.56787    24.8049 1.5818e+00     52.456     1.3642 0.0000e+00
     53.000     7.5594    31.7759   10.08439  103.54239    24.8046 1.5765e+00     53.571     1.5434 0.0000e+00
     54.000     7.5594    31.7762   10.09359  103.63726    24.8047 1.5723e+00     54.482     1.3253 0.0000e+00
     55.000     7.5592    31.7762   10.09393  103.64049    24.8047 1.5682e+00     55.589     1.2745 0.0000e+00
     56.000     7.5593    31.7761   10.09817  103.68439    24.8047 1.5654e+00     56.571     1.3187 0.0000e+00
     57.000     7.5595    31.7764   10.08889  103.58890    24.8050 1.5628e+00     57.509     1.2975 0.0000e+00
     58.000     7.5594    31.7760   10.08959  103.59567    24.8046 1.5606e+00     58.545     1.2940 0.0000e+00
     59.000     7.5595    31.7762   10.14403  104.15467    24.8048 1.5589e+00     59.537     1.4350 0.0000e+00
     60.000     7.5595    31.7761   10.04212  103.10931    24.8047 1.5570e+00     60.426     1.3941 0.0000e+00
     61.000     7.5594    31.7757   10.08027  103.50040    24.8044 1.5555e+00     61.474     1.4419 0.0000e+00
     62.000     7.5594    31.7764   10.11047  103.81008    24.8049 1.5542e+00     62.311     1.4895 0.0000e+00
     61.000     7.5602    31.7760   10.10483  103.75378    24.8046 1.5551e+00     61.349     1.3738 0.0000e+00
     60.000     7.5604    31.7758   10.10744  103.78060    24.8043 1.5564e+00     60.530     1.3056 0.0000e+00
     59.000     7.5601    31.7759   10.10252  103.73012    24.8045 1.5578e+00     59.555     1.3480 0.0000e+00
     58.000     7.5599    31.7760   10.11922  103.90192    24.8046 1.5594e+00     58.539     1.3372 0.0000e+00
     57.000     7.5600    31.7760   10.12728  103.98429    24.8046 1.5613e+00     57.576     1.3520 0.0000e+00
     56.000     7.5602    31.7756   10.13193  104.03193    24.8042 1.5641e+00     56.523     1.3635 0.0000e+00
     55.000     7.5600    31.7755   10.13253  104.03772    24.8042 1.5675e+00     55.525     1.4207 0.0000e+00
     54.000     7.5600    31.7756   10.12965  104.00768    24.8042 1.5750e+00     54.510     1.3816 0.0000e+00
     53.000     7.5598    31.7756   10.13795  104.09417    24.8043 1.5787e+00     53.525     1.2694 0.0000e+00
     52.000     7.5597    31.7757   10.14572  104.17307    24.8043 1.5825e+00     52.495     1.2252 0.0000e+00
     51.000     7.5603    31.7754   10.14616  104.17759    24.8040 1.5896e+00     51.477     1.2188 0.0000e+00
     50.000     7.5599    31.7754   10.15673  104.28660    24.8041 1.5978e+00     50.489     1.1332 0.0000e+00
     49.000     7.5601    31.7753   10.15676  104.28612    24.8040 1.6074e+00     49.458     1.1755 0.0000e+00
     48.000     7.5604    31.7743   10.15654  104.28337    24.8032 1.6193e+00     48.425     1.4875 0.0000e+00
     47.000     7.5603    31.7733   10.15971  104.31568    24.8023 1.6339e+00     47.467     1.8400 0.0000e+00
     46.000     7.5604    31.7727   10.16035  104.32275    24.8019 1.6511e+00     46.456     1.4304 0.0000e+00
     45.000     7.5616    31.7688   10.16266  104.34608    24.7987 1.6728e+00     45.386     1.5252 0.0000e+00
     44.000     7.5620    31.7670   10.17851  104.50929    24.7971 1.6984e+00     44.411     1.4530 0.0000e+00
     43.000     7.5622    31.7662   10.17249  104.44786    24.7966 1.7292e+00     43.432     1.3382 0.0000e+00
     42.000     7.5634    31.7633   10.16860  104.40724    24.7942 1.7673e+00     42.397     1.5253 0.0000e+00
     41.000     7.5643    31.7601   10.17162  104.43851    24.7915 1.8154e+00     41.379     1.5556 0.0000e+00
     40.000     7.5649    31.7572   10.17677  104.49136    24.7891 1.8757e+00     40.385     1.3543 0.0000e+00
     39.000     7.5659    31.7545   10.17372  104.46076    24.7869 1.9510e+00     39.375     1.3062 0.0000e+00
     38.000     7.5669    31.7503   10.17444  104.46775    24.7834 2.0472e+00     38.358     1.5980 0.0000e+00
     37.000     7.5675    31.7486   10.17175  104.44009    24.7820 2.1655e+00     37.343     1.5959 0.0000e+00
     36.000     7.5677    31.7472   10.16611  104.38243    24.7808 2.3039e+00     36.335     1.5705 0.0000e+00
     35.000     7.5678    31.7470   10.16826  104.40432    24.7807 2.4697e+00     35.319     1.8251 0.0000e+00
     34.000     7.5687    31.7447   10.17686  104.49256    24.7788 2.6747e+00     34.332     1.5003 0.0000e+00
     33.000     7.5693    31.7421   10.18104  104.53469    24.7766 2.9376e+00     33.319     1.5256 0.0000e+00
     32.000     7.5698    31.7397   10.18290  104.55379    24.7747 3.2577e+00     32.279     1.4129 0.0000e+00
     31.000     7.5703    31.7376   10.19513  104.67975    24.7730 3.6464e+00     31.284     1.5305 0.0000e+00
     30.000     7.5713    31.7344   10.19383  104.66670    24.7703 4.1197e+00     30.304     1.4046 0.0000e+00
     29.000     7.5726    31.7297   10.18078  104.53309    24.7665 4.7069e+00     29.283     1.5596 0.0000e+00
     28.000     7.5732    31.7277   10.19011  104.62932    24.7648 5.4311e+00     28.288     1.3483 0.0000e+00
     27.000     7.5740    31.7254   10.20371  104.77081    24.7629 6.3062e+00     27.237     1.7712 0.0000e+00
     26.000     7.5748    31.7235   10.23460  105.09164    24.7613 7.3374e+00     26.266     1.3998 0.0000e+00
     25.000     7.5771    31.7191   10.24892  105.24126    24.7575 8.5587e+00     25.223     1.6484 0.0000e+00
     24.000     7.5800    31.7138   10.26263  105.38448    24.7530 1.0112e+01     24.229     1.4520 0.0000e+00
     23.000     7.5824    31.7087   10.26981  105.46187    24.7487 1.1925e+01     23.228     1.5378 0.0000e+00
     22.000     7.5842    31.7058   10.28767  105.64711    24.7461 1.3959e+01     22.183     1.2890 0.0000e+00
     21.000     7.5870    31.7006   10.31453  105.92668    24.7417 1.6255e+01     21.220     1.3187 0.0000e+00
     20.000     7.5891    31.6968   10.33368  106.12659    24.7384 1.8807e+01     20.174     1.7219 0.0000e+00
     19.000     7.5923    31.6912   10.35260  106.32449    24.7336 2.1713e+01     19.181     1.4175 0.0000e+00
     18.000     7.5949    31.6857   10.36060  106.41078    24.7289 2.4937e+01     18.156     1.2770 0.0000e+00
     17.000     7.5973    31.6818   10.37055  106.51646    24.7255 2.8551e+01     17.159     1.3848 0.0000e+00
     16.000     7.6002    31.6772   10.38644  106.68420    24.7215 3.2610e+01     16.147     1.3228 0.0000e+00
     15.000     7.6028    31.6733   10.41577  106.98930    24.7180 3.7325e+01     15.130     1.4395 0.0000e+00
     14.000     7.6061    31.6680   10.43421  107.18207    24.7135 4.2764e+01     14.125     1.3803 0.0000e+00
     13.000     7.6086    31.6640   10.44964  107.34370    24.7099 4.9503e+01     13.116     1.3021 0.0000e+00
     12.000     7.6108    31.6606   10.47672  107.62656    24.7069 5.5313e+01     12.119     1.4603 0.0000e+00
     11.000     7.6134    31.6567   10.51389  108.01399    24.7035 6.2124e+01     11.087     1.3312 0.0000e+00
     10.000     7.6163    31.6517   10.53758  108.26200    24.6993 6.8718e+01     10.090     1.3276 0.0000e+00
      9.000     7.6198    31.6464   10.54957  108.39092    24.6946 7.7410e+01      9.088     1.3931 0.0000e+00
      8.000     7.6223    31.6438   10.57915  108.70187    24.6922 8.5392e+01      8.089     1.3095 0.0000e+00
      7.000     7.6250    31.6415   10.60614  108.98657    24.6901 9.4699e+01      7.085     1.2464 0.0000e+00
      6.000     7.6286    31.6393   10.63104  109.24774    24.6879 1.0398e+02      6.082     1.2715 0.0000e+00
      5.000     7.6327    31.6372   10.67698  109.73599    24.6856 1.1342e+02      5.032     1.0955 0.0000e+00
      4.000     7.6352    31.6352   10.68437  109.84471    24.6836 1.1872e+02      4.050     1.0518 0.0000e+00
      3.000     7.6406    31.6356   10.62272  109.28828    24.6835 1.2532e+02      3.030     0.9886 0.0000e+00
      2.000     7.6546    31.6341   11.87190  110.00957    24.6806 1.3556e+02      2.027     0.8682 0.0000e+00
      1.000     7.6807    31.6390   10.75815  108.12654    24.6819 2.7554e+02      1.095     0.7510 0.0000e+00
