* Sea-Bird SBE19plus Data File:
* FileName = C:\data\otf\2007\ctd-07025.hex
* Software Version 1.55
* Temperature SN =  5061
* Conductivity SN =  5061
* System UpLoad Time = Aug 15 2007 16:00:00
* ds
* SeacatPlus V 1.6a  SERIAL NO. 5061    15 Aug 2007  15:31:53
* vbatt = 10.9, vlith =  8.7, ioper =  61.6 ma, ipump =  57.5 ma, 
* iext01 =  95.2 ma
* iext23 =  58.1 ma
* 
* status = not logging
* number of scans to average = 1
* samples = 153039, free = 288466, casts = 154
* mode = profile, minimum cond freq = 3000, pump delay = 60 sec
* autorun = no, ignore magnetic switch = no
* battery type = alkaline, battery cutoff =  7.3 volts
* pressure sensor = strain gauge, range = 870.0
* SBE 38 = no, Gas Tension Device = no
* Ext Volt 0 = yes, Ext Volt 1 = yes, Ext Volt 2 = yes, Ext Volt 3 = yes
* echo commands = yes
* output format = raw HEX
* S>
* 
* SeacatPlus V 1.6a  SERIAL NO. 5061    15 Aug 2007  15:32:18
* temperature:  05-oct-06
*     TA0 = 1.254184e-03
*     TA1 = 2.596730e-04
*     TA2 = 5.165612e-07
*     TA3 = 1.318931e-07
*     TOFFSET = 0.000000e+00
* conductivity:  05-oct-06
*     G = -9.978144e-01
*     H = 1.555200e-01
*     I = -4.839108e-04
*     J = 6.121100e-05
*     CF0 = 2.539936e+03
*     CPCOR = -9.570000e-08
*     CTCOR = 3.250000e-06
*     CSLOPE = 1.000000e+00
* pressure S/N = 2362539, range = 870 psia:  24-aug-06
*     PA0 = 2.171091e-01
*     PA1 = 2.647085e-03
*     PA2 = 1.419397e-11
*     PTCA0 = 5.242437e+05
*     PTCA1 = 7.545345e+00
*     PTCA2 = -1.835354e-01
*     PTCB0 = 2.537125e+01
*     PTCB1 = -1.750000e-03
*     PTCB2 = 0.000000e+00
*     PTEMPA0 = -5.753989e+01
*     PTEMPA1 = 5.235813e+01
*     PTEMPA2 = -4.015521e-02
*     POFFSET = 0.000000e+00
* volt 0: offset = -4.682842e-02, slope = 1.249147e+00
* volt 1: offset = -4.695158e-02, slope = 1.248145e+00
* volt 2: offset = -4.685263e-02, slope = 1.248783e+00
* volt 3: offset = -4.690316e-02, slope = 1.249508e+00
*     EXTFREQSF = 1.000002e+00
* dh
* cast  25 06 Jul 2007 09:15:10 samples 32471 to 32781, avg = 4, stop = mag switch
* S> 
# nquan = 10
# nvalues = 175                         
# units = specified
# name 0 = depSM: Depth [salt water, m]
# name 1 = tv290C: Temperature [ITS-90, deg C]
# name 2 = sal00: Salinity [PSU]
# name 3 = sbeox0Mg/L: Oxygen, SBE 43 [mg/l]
# name 4 = sbeox0PS: Oxygen, SBE 43 [% saturation]
# name 5 = sigma-t00: Density [sigma-t, Kg/m^3 ]
# name 6 = par: PAR/Irradiance, Biospherical/Licor
# name 7 = prdM: Pressure, Strain Gauge [db]
# name 8 = flECO-AFL: Fluorescence, Wetlab ECO-AFL/FL [mg/m^3]
# name 9 = flag: flag
# span 0 =      1.000,     90.000       
# span 1 =     7.7797,     7.9352       
# span 2 =    31.4595,    31.5802       
# span 3 =    9.16893,   12.20391       
# span 4 =   94.70601,  109.30519       
# span 5 =    24.5094,    24.6201       
# span 6 = 1.5466e+00, 3.8452e+02       
# span 7 =      1.783,     90.171       
# span 8 =     0.6658,     1.3201       
# span 9 = 0.0000e+00, 0.0000e+00       
# interval = meters: 1                  
# start_time = Jul 06 2007 09:15:10
# bad_flag = -9.990e-29
# sensor 0 = Frequency 0  temperature, 5061, 05-Oct-06
# sensor 1 = Frequency 1  conductivity, 5061, 05-Oct-06, cpcor = -9.5700e-08
# sensor 2 = Pressure Number
# sensor 3 = Extrnl Volt  0  irradiance (PAR), primary, 4751, 08/10/06
# sensor 4 = Extrnl Volt  1  Oxygen, SBE, primary, 1081, 10/24/06
# sensor 5 = Extrnl Volt  2  WET Labs, ECO_AFL
# sensor 6 = Extrnl Volt  3  userpoly 0, 0627, 10/11/06
# datcnv_date = Oct 15 2007 14:49:44, 5.37e
# datcnv_in = I:\bob d\OTF_GEM\2007\ctd-07025.hex I:\Willette\OTF\CTD\5061.con
# datcnv_skipover = 0
# filter_date = Oct 15 2007 15:02:22, 5.37e
# filter_in = I:\Willette\OTF\CTD\2007\CTD Data\ctd-07025.cnv
# filter_low_pass_tc_A = 1.000
# filter_low_pass_tc_B = 0.150
# filter_low_pass_A_vars = prdM
# filter_low_pass_B_vars =
# loopedit_date = Oct 15 2007 15:06:45, 5.37e
# loopedit_in = I:\Willette\OTF\CTD\2007\CTD Data\ctd-07025.cnv
# loopedit_minVelocity = 0.250                                                                                            
# loopedit_surfaceSoak: minDepth = 5.0, maxDepth = 20, useDeckPress = 1                                                   
# loopedit_excl_bad_scans = yes
# alignctd_date = Oct 15 2007 15:14:13, 5.37e
# alignctd_in = I:\Willette\OTF\CTD\2007\CTD Data\ctd-07025.cnv
# alignctd_adv = tv290C 0.500, sbeox0Mg/L 4.000, sbeox0PS 4.000                                                                                                                                                                      
# binavg_date = Oct 15 2007 15:18:42, 5.37e
# binavg_in = I:\Willette\OTF\CTD\2007\CTD Data\ctd-07025.cnv
# binavg_bintype = meters
# binavg_binsize = 1
# binavg_excl_bad_scans = yes
# binavg_skipover = 0
# binavg_surface_bin = no, min = 0.000, max = 0.000, value = 0.000
# file_type = ascii
*END*
      5.000     7.9215    31.4824    9.16893   94.70601    24.5223 1.9005e+02      4.729     0.6658 0.0000e+00
      6.000     7.9352    31.5483    9.30427   96.08285    24.5740 1.5815e+02      5.977     0.7720 0.0000e+00
      7.000     7.9139    31.4886    9.45221   97.60771    24.5265 1.3188e+02      8.020     0.8230 0.0000e+00
      8.000     7.9031    31.4833    9.45310   97.61547    24.5249 1.0843e+02      8.948     0.8740 0.0000e+00
      9.000     7.8940    31.4788    9.41987   97.27690    24.5227 8.9876e+01      9.914     0.9036 0.0000e+00
     10.000     7.8957    31.4740    9.47803   97.86579    24.5200 7.6154e+01     10.698     0.9135 0.0000e+00
     11.000     7.8991    31.4762    9.61004   99.22575    24.5226 6.4635e+01     11.463     0.8472 0.0000e+00
     12.000     7.9024    31.4789    9.70700  100.23419    24.5244 5.3453e+01     12.371     0.8391 0.0000e+00
     13.000     7.8988    31.4776    9.77446  100.92550    24.5227 4.4812e+01     13.472     0.8611 0.0000e+00
     14.000     7.8902    31.4737    9.83093  101.50113    24.5196 3.7578e+01     14.679     0.8686 0.0000e+00
     15.000     7.8890    31.4679    9.84721  101.66220    24.5157 3.1863e+01     15.733     0.8710 0.0000e+00
     16.000     7.8908    31.4710    9.86898  101.89054    24.5191 2.7335e+01     16.597     0.7776 0.0000e+00
     17.000     7.8916    31.4724    9.87434  101.94889    24.5203 2.3365e+01     17.546     0.7878 0.0000e+00
     18.000     7.8933    31.4708    9.88642  102.06108    24.5188 2.0125e+01     18.409     0.8684 0.0000e+00
     19.000     7.8930    31.4713    9.90487  102.24506    24.5191 1.7237e+01     19.323     0.7934 0.0000e+00
     20.000     7.8930    31.4692    9.91586  102.35819    24.5172 1.4873e+01     20.259     0.7962 0.0000e+00
     21.000     7.8922    31.4684    9.92652  102.46571    24.5166 1.2882e+01     21.093     0.7975 0.0000e+00
     22.000     7.8943    31.4683    9.93317  102.53687    24.5165 1.1112e+01     22.050     0.7935 0.0000e+00
     23.000     7.8933    31.4690    9.93813  102.58982    24.5172 9.6374e+00     23.021     0.8167 0.0000e+00
     24.000     7.8903    31.4664    9.94117  102.61625    24.5149 8.3556e+00     24.062     0.8707 0.0000e+00
     25.000     7.8921    31.4595    9.94795  102.67422    24.5097 7.2727e+00     25.268     0.8458 0.0000e+00
     26.000     7.8921    31.4638    9.95564  102.74239    24.5135 6.4046e+00     26.291     0.8268 0.0000e+00
     27.000     7.8898    31.4623    9.96879  102.87171    24.5119 5.6188e+00     27.373     0.8642 0.0000e+00
     28.000     7.8870    31.4606    9.97576  102.94698    24.5106 5.0088e+00     28.430     0.9053 0.0000e+00
     29.000     7.8832    31.4606    9.96880  102.88232    24.5109 4.4712e+00     29.497     0.8813 0.0000e+00
     30.000     7.8847    31.4619    9.97099  102.90336    24.5123 4.0557e+00     30.413     1.1144 0.0000e+00
     31.000     7.8867    31.4658    9.99057  103.09965    24.5159 3.6634e+00     31.423     0.8845 0.0000e+00
     32.000     7.8798    31.4668    9.97521  102.93427    24.5165 3.3403e+00     32.535     0.8950 0.0000e+00
     33.000     7.8759    31.4647    9.97373  102.88994    24.5146 3.0758e+00     33.517     0.8349 0.0000e+00
     34.000     7.8759    31.4643    9.97824  102.91654    24.5151 2.8363e+00     34.526     0.8401 0.0000e+00
     35.000     7.8747    31.4696    9.98007  102.93054    24.5199 2.6459e+00     35.511     0.8203 0.0000e+00
     36.000     7.8772    31.4727    9.97851  102.90482    24.5224 2.4743e+00     36.544     0.8145 0.0000e+00
     37.000     7.8776    31.4715    9.98462  102.95424    24.5216 2.3407e+00     37.563     0.8531 0.0000e+00
     38.000     7.8744    31.4720    9.98544  102.96310    24.5217 2.2226e+00     38.478     0.8421 0.0000e+00
     39.000     7.8693    31.4702    9.99046  103.01624    24.5202 2.1164e+00     39.622     0.8303 0.0000e+00
     40.000     7.8647    31.4713    9.99014  103.01151    24.5215 2.0337e+00     40.683     0.8186 0.0000e+00
     41.000     7.8621    31.4728   10.00565  103.16546    24.5232 1.9637e+00     41.583     0.7981 0.0000e+00
     42.000     7.8618    31.4742    9.99899  103.08778    24.5249 1.9001e+00     42.558     0.8064 0.0000e+00
     43.000     7.8633    31.4761    9.99349  103.02381    24.5269 1.8468e+00     43.599     0.8355 0.0000e+00
     44.000 -9.990e-29 -9.990e-29 -9.990e-29 -9.990e-29 -9.990e-29 -9.990e-29 -9.990e-29 -9.990e-29 -9.990e-29
     45.000     7.8649    31.4779    9.99281  103.02133    24.5284 1.7724e+00     45.270     0.8315 0.0000e+00
     46.000     7.8632    31.4774   10.00790  103.16345    24.5277 1.7312e+00     46.432     0.7859 0.0000e+00
     47.000     7.8610    31.4765   10.00487  103.12627    24.5269 1.7047e+00     47.424     0.7670 0.0000e+00
     48.000     7.8540    31.4758   10.00800  103.15705    24.5266 1.6817e+00     48.377     0.7605 0.0000e+00
     49.000 -9.990e-29 -9.990e-29 -9.990e-29 -9.990e-29 -9.990e-29 -9.990e-29 -9.990e-29 -9.990e-29 -9.990e-29
     50.000     7.8395    31.4760   10.00805  103.15781    24.5271 1.6508e+00     49.921     0.8124 0.0000e+00
     51.000     7.8333    31.4763   10.00440  103.11797    24.5291 1.6288e+00     51.374     0.8413 0.0000e+00
     52.000     7.8278    31.4853   10.00430  103.11630    24.5377 1.6167e+00     52.388     0.8072 0.0000e+00
     53.000     7.8205    31.4878   10.03608  103.44719    24.5400 1.6057e+00     53.363     0.7707 0.0000e+00
     54.000     7.8198    31.4937    9.99244  102.99738    24.5455 1.5968e+00     54.393     0.8150 0.0000e+00
     55.000     7.8203    31.5009    9.98806  102.95285    24.5521 1.5890e+00     55.376     0.8197 0.0000e+00
     56.000     7.8196    31.5031    9.99435  103.01482    24.5541 1.5823e+00     56.397     0.8255 0.0000e+00
     57.000     7.8155    31.5030    9.99498  103.01938    24.5540 1.5770e+00     57.452     0.8292 0.0000e+00
     58.000     7.8089    31.5038    9.99679  103.03419    24.5546 1.5727e+00     58.469     0.8216 0.0000e+00
     59.000 -9.990e-29 -9.990e-29 -9.990e-29 -9.990e-29 -9.990e-29 -9.990e-29 -9.990e-29 -9.990e-29 -9.990e-29
     60.000     7.8038    31.5130   10.00248  103.08924    24.5628 1.5663e+00     59.992     0.8284 0.0000e+00
     61.000     7.8077    31.5278    9.97983  102.85656    24.5759 1.5620e+00     61.403     0.8523 0.0000e+00
     62.000     7.7939    31.5220    9.99356  103.00133    24.5713 1.5599e+00     62.509     0.9428 0.0000e+00
     63.000     7.7920    31.5229   10.00052  103.07105    24.5713 1.5576e+00     63.497     0.8865 0.0000e+00
     64.000     7.7931    31.5387   10.00391  103.10563    24.5854 1.5564e+00     64.431     0.8809 0.0000e+00
     65.000     7.7930    31.5416   10.00364  103.10352    24.5881 1.5548e+00     65.497     0.9096 0.0000e+00
     66.000     7.7910    31.5397   10.00043  103.07039    24.5867 1.5536e+00     66.582     0.8746 0.0000e+00
     67.000     7.7916    31.5411   10.00424  103.10953    24.5877 1.5528e+00     67.478     0.9305 0.0000e+00
     68.000     7.7938    31.5443   10.00560  103.12370    24.5905 1.5517e+00     68.483     1.0149 0.0000e+00
     69.000     7.7938    31.5416    9.99974  103.06401    24.5883 1.5513e+00     69.618     0.9554 0.0000e+00
     70.000     7.7932    31.5388   10.00772  103.14582    24.5858 1.5510e+00     70.605     0.9391 0.0000e+00
     71.000     7.7903    31.5389   10.00598  103.12987    24.5859 1.5506e+00     71.461     0.9035 0.0000e+00
     72.000     7.7880    31.5419   10.01416  103.21414    24.5883 1.5503e+00     72.504     0.8741 0.0000e+00
     73.000     7.7836    31.5469   10.01123  103.18705    24.5927 1.5502e+00     73.588     0.8965 0.0000e+00
     74.000     7.7832    31.5531   10.00434  103.11412    24.5979 1.5500e+00     74.591     0.8792 0.0000e+00
     75.000     7.7838    31.5586   10.01853  103.26044    24.6029 1.5494e+00     75.615     0.8444 0.0000e+00
     76.000     7.7826    31.5586    9.98898  102.95596    24.6027 1.5494e+00     76.496     0.8668 0.0000e+00
     77.000     7.7814    31.5618    9.98479  102.91534    24.6053 1.5490e+00     77.690     0.9491 0.0000e+00
     78.000 -9.990e-29 -9.990e-29 -9.990e-29 -9.990e-29 -9.990e-29 -9.990e-29 -9.990e-29 -9.990e-29 -9.990e-29
     79.000     7.7819    31.5686    9.98855  102.95568    24.6108 1.5488e+00     79.575     0.9505 0.0000e+00
     80.000     7.7817    31.5675    9.98972  102.96613    24.6100 1.5487e+00     80.530     0.9076 0.0000e+00
     81.000     7.7818    31.5673    9.98791  102.94765    24.6098 1.5488e+00     81.477     0.9227 0.0000e+00
     82.000     7.7820    31.5677    9.98378  102.90540    24.6101 1.5485e+00     82.472     0.9505 0.0000e+00
     83.000     7.7818    31.5673    9.98146  102.87932    24.6098 1.5485e+00     83.437     0.9209 0.0000e+00
     84.000     7.7817    31.5678    9.97379  102.79971    24.6102 1.5481e+00     84.383     0.9352 0.0000e+00
     85.000     7.7814    31.5680    9.97564  102.81936    24.6104 1.5485e+00     85.304     0.9562 0.0000e+00
     86.000     7.7807    31.5716    9.98086  102.87672    24.6132 1.5484e+00     86.100     0.9995 0.0000e+00
     87.000     7.7797    31.5729    9.97745  102.84041    24.6142 1.5479e+00     86.864     1.0468 0.0000e+00
     88.000     7.7798    31.5795    9.98157  102.88128    24.6197 1.5485e+00     87.551     0.8887 0.0000e+00
     89.000     7.7803    31.5800    9.98166  102.88135    24.6201 1.5482e+00     88.263     1.0265 0.0000e+00
     90.000     7.7819    31.5801    9.97330  102.79490    24.6199 1.5466e+00     90.171     1.3201 0.0000e+00
     89.000     7.7810    31.5802    9.98205  102.88195    24.6201 1.5477e+00     89.048     1.0698 0.0000e+00
     88.000     7.7821    31.5791    9.97665  102.82595    24.6193 1.5476e+00     88.191     1.0576 0.0000e+00
     87.000     7.7827    31.5731    9.97215  102.77911    24.6144 1.5476e+00     87.412     1.0525 0.0000e+00
     86.000     7.7819    31.5728    9.98316  102.89188    24.6140 1.5476e+00     86.563     1.0374 0.0000e+00
     85.000     7.7812    31.5749    9.99000  102.96210    24.6157 1.5482e+00     85.679     1.0853 0.0000e+00
     84.000     7.7818    31.5743    9.98058  102.86650    24.6154 1.5482e+00     84.747     1.0667 0.0000e+00
     83.000     7.7817    31.5732    9.97542  102.81383    24.6144 1.5481e+00     83.882     1.0283 0.0000e+00
     82.000     7.7828    31.5715    9.97452  102.80427    24.6131 1.5481e+00     82.679     1.0501 0.0000e+00
     81.000     7.7836    31.5669    9.97882  102.84777    24.6094 1.5484e+00     81.788     0.9963 0.0000e+00
     80.000     7.7835    31.5618    9.98899  102.95318    24.6053 1.5483e+00     80.818     1.0852 0.0000e+00
     79.000     7.7827    31.5624    9.98838  102.95051    24.6058 1.5485e+00     79.797     0.9435 0.0000e+00
     78.000     7.7831    31.5645    9.99418  103.01267    24.6075 1.5485e+00     78.769     1.0262 0.0000e+00
     77.000     7.7849    31.5617    9.99367  103.00839    24.6052 1.5485e+00     77.732     1.0126 0.0000e+00
     76.000     7.7863    31.5570    9.99822  103.05829    24.6013 1.5486e+00     76.753     0.9250 0.0000e+00
     75.000     7.7863    31.5534    9.97616  102.83247    24.5983 1.5488e+00     75.725     1.0364 0.0000e+00
     74.000     7.7859    31.5531    9.97789  102.85080    24.5981 1.5492e+00     74.735     1.0438 0.0000e+00
     73.000     7.7866    31.5533    9.97931  102.86631    24.5983 1.5497e+00     73.723     1.0124 0.0000e+00
     72.000     7.7893    31.5515    9.99169  102.99370    24.5967 1.5499e+00     72.735     0.9764 0.0000e+00
     71.000     7.7914    31.5464    9.98736  102.94867    24.5923 1.5501e+00     71.693     0.9742 0.0000e+00
     70.000     7.7926    31.5428    9.96584  102.72654    24.5893 1.5507e+00     70.665     0.9699 0.0000e+00
     69.000     7.7949    31.5405    9.98238  102.89803    24.5873 1.5512e+00     69.671     0.9956 0.0000e+00
     68.000     7.7962    31.5365    9.97779  102.85471    24.5838 1.5520e+00     68.662     1.0254 0.0000e+00
     67.000     7.7969    31.5345    9.99745  103.06251    24.5821 1.5529e+00     67.592     0.9523 0.0000e+00
     66.000     7.7974    31.5332    9.99634  103.05582    24.5810 1.5539e+00     66.608     0.9149 0.0000e+00
     65.000     7.7974    31.5325    9.98636  102.96308    24.5804 1.5551e+00     65.600     0.9222 0.0000e+00
     64.000     7.7972    31.5320    9.99176  103.02405    24.5799 1.5569e+00     64.565     0.9604 0.0000e+00
     63.000     7.7971    31.5321    9.99971  103.11062    24.5801 1.5585e+00     63.586     0.9499 0.0000e+00
     62.000     7.7977    31.5324    9.99730  103.09107    24.5803 1.5609e+00     62.514     0.9176 0.0000e+00
     61.000     7.8001    31.5308   10.00357  103.15940    24.5789 1.5636e+00     61.575     0.9130 0.0000e+00
     60.000     7.8033    31.5281   10.00321  103.15666    24.5764 1.5667e+00     60.602     0.9311 0.0000e+00
     59.000     7.8062    31.5236    9.98932  103.02927    24.5725 1.5711e+00     59.567     0.9040 0.0000e+00
     58.000     7.8120    31.5200    9.99370  103.11871    24.5692 1.5757e+00     58.551     0.9433 0.0000e+00
     57.000     7.8168    31.5119   10.00324  103.23271    24.5621 1.5812e+00     57.501     0.9504 0.0000e+00
     56.000     7.8189    31.5068   10.00439  103.24515    24.5575 1.5879e+00     56.522     0.8716 0.0000e+00
     55.000     7.8224    31.5038   10.01998  103.39580    24.5549 1.5959e+00     55.540     0.9325 0.0000e+00
     54.000     7.8253    31.4997   10.02608  103.44989    24.5511 1.6055e+00     54.508     0.9556 0.0000e+00
     53.000     7.8262    31.4962   10.02396  103.43221    24.5479 1.6169e+00     53.479     0.8807 0.0000e+00
     52.000     7.8273    31.4951   10.02744  103.47460    24.5469 1.6299e+00     52.602     0.9141 0.0000e+00
     51.000     7.8511    31.4965   10.02028  103.40308    24.5480 1.6450e+00     51.359     0.8306 0.0000e+00
     50.000     7.8614    31.4878   10.02911  103.49794    24.5385 1.6621e+00     50.496     0.8252 0.0000e+00
     49.000     7.8650    31.4780   10.02987  103.50825    24.5284 1.6825e+00     49.359     0.7614 0.0000e+00
     48.000     7.8615    31.4767   10.02200  103.42760    24.5272 1.7065e+00     48.461     0.8834 0.0000e+00
     47.000     7.8556    31.4766   10.02688  103.48067    24.5275 1.7342e+00     47.352     0.8434 0.0000e+00
     46.000     7.8552    31.4784   10.02670  103.48357    24.5296 1.7674e+00     46.425     0.8478 0.0000e+00
     45.000     7.8583    31.4801   10.03446  103.57196    24.5312 1.8054e+00     45.406     0.7686 0.0000e+00
     44.000     7.8608    31.4788   10.02745  103.50384    24.5297 1.8514e+00     44.414     0.8738 0.0000e+00
     43.000     7.8615    31.4771   10.04027  103.63909    24.5280 1.9061e+00     43.355     0.8859 0.0000e+00
     42.000     7.8630    31.4772   10.03272  103.56310    24.5280 1.9706e+00     42.427     0.9175 0.0000e+00
     41.000     7.8639    31.4768   10.03141  103.55474    24.5274 2.0464e+00     41.225     0.9737 0.0000e+00
     40.000     7.8643    31.4763   10.04045  103.65135    24.5270 2.1401e+00     40.362     0.8179 0.0000e+00
     39.000     7.8653    31.4764   10.04873  103.74124    24.5269 2.2446e+00     39.344     0.7901 0.0000e+00
     38.000     7.8678    31.4758   10.04315  103.68732    24.5263 2.3720e+00     38.372     0.8328 0.0000e+00
     37.000     7.8722    31.4753   10.04669  103.72664    24.5258 2.5139e+00     37.304     0.8115 0.0000e+00
     36.000     7.8737    31.4734   10.04921  103.75003    24.5235 2.6950e+00     36.406     0.8663 0.0000e+00
     35.000     7.8754    31.4719   10.05421  103.79542    24.5221 2.9096e+00     35.314     0.8710 0.0000e+00
     34.000     7.8767    31.4703   10.05659  103.81772    24.5206 3.1637e+00     34.274     0.9473 0.0000e+00
     33.000     7.8790    31.4691   10.06798  103.93765    24.5195 3.4629e+00     33.281     0.8583 0.0000e+00
     32.000     7.8806    31.4678   10.06307  103.89122    24.5182 3.8238e+00     32.284     0.8228 0.0000e+00
     31.000     7.8831    31.4665   10.05926  103.85488    24.5169 4.2337e+00     31.182     0.8444 0.0000e+00
     30.000     7.8847    31.4660   10.05914  103.85601    24.5162 4.7312e+00     30.287     0.8126 0.0000e+00
     29.000     7.8861    31.4649   10.08133  104.08758    24.5150 5.3016e+00     29.193     1.1300 0.0000e+00
     28.000     7.8854    31.4637   10.07731  104.05508    24.5139 6.0073e+00     28.340     0.7486 0.0000e+00
     27.000     7.8826    31.4626   10.08302  104.12375    24.5131 6.8751e+00     27.157     1.0779 0.0000e+00
     26.000     7.8816    31.4631   10.09607  104.26845    24.5138 7.9013e+00     26.262     0.9147 0.0000e+00
     25.000     7.8822    31.4644   10.10391  104.35645    24.5151 9.0334e+00     25.163     0.8417 0.0000e+00
     24.000     7.8836    31.4636   10.11387  104.46022    24.5144 1.0457e+01     24.309     0.8109 0.0000e+00
     23.000     7.8854    31.4635   10.11367  104.45964    24.5141 1.2184e+01     23.237     0.9542 0.0000e+00
     22.000     7.8864    31.4625   10.11590  104.48289    24.5131 1.4195e+01     22.210     0.9993 0.0000e+00
     21.000     7.8876    31.4626   10.11902  104.51552    24.5130 1.6609e+01     21.206     0.7841 0.0000e+00
     20.000     7.8906    31.4624   10.14881  104.82535    24.5127 1.9495e+01     20.240     0.9066 0.0000e+00
     19.000     7.8940    31.4635   10.14713  104.80899    24.5134 2.2948e+01     19.234     0.9861 0.0000e+00
     18.000     7.8986    31.4633   10.17187  105.06716    24.5125 2.7022e+01     18.243     0.8636 0.0000e+00
     17.000     7.9024    31.4637   10.16262  104.97477    24.5122 3.2107e+01     17.215     0.9169 0.0000e+00
     16.000     7.9032    31.4626   10.16751  105.02582    24.5108 3.7962e+01     16.194     0.9081 0.0000e+00
     15.000     7.9038    31.4621   10.19236  105.28210    24.5102 4.5092e+01     15.134     0.9356 0.0000e+00
     14.000     7.9038    31.4622   10.22765  105.65179    24.5102 5.3439e+01     14.140     0.9974 0.0000e+00
     13.000     7.9041    31.4623   10.23500  105.73135    24.5103 6.2831e+01     13.094     1.0174 0.0000e+00
     12.000     7.9050    31.4623   10.36307  107.05323    24.5103 7.4138e+01     12.149     0.8378 0.0000e+00
     11.000     7.9055    31.4622   10.40519  107.49478    24.5100 8.7367e+01     11.162     0.9527 0.0000e+00
     10.000     7.9065    31.4626   10.49834  108.46438    24.5103 1.0194e+02     10.162     0.8701 0.0000e+00
      9.000     7.9078    31.4628   10.57977  109.30519    24.5103 1.1826e+02      9.104     0.9037 0.0000e+00
      8.000     7.9077    31.4625   10.48927  108.37662    24.5099 1.3294e+02      8.110     0.8986 0.0000e+00
      7.000     7.9084    31.4623   11.03813  106.42259    24.5097 1.4679e+02      7.130     0.8845 0.0000e+00
      6.000     7.9107    31.4629   11.98993  104.73935    24.5102 1.5424e+02      6.124     0.8921 0.0000e+00
      5.000     7.9110    31.4628   12.20391  104.42496    24.5097 1.5858e+02      5.190     0.8133 0.0000e+00
      4.000     7.9114    31.4625 -9.990e-29 -9.990e-29    24.5094 1.6377e+02      4.243     0.7117 0.0000e+00
      3.000     7.9153    31.4637 -9.990e-29 -9.990e-29    24.5103 1.6853e+02      3.291     0.7534 0.0000e+00
      2.000     7.9162    31.4641 -9.990e-29 -9.990e-29    24.5102 1.9108e+02      2.532     0.7665 0.0000e+00
      1.000     7.9159    31.4635 -9.990e-29 -9.990e-29    24.5095 3.8452e+02      1.783     0.7606 0.0000e+00
