* Sea-Bird SBE19plus Data File:
* FileName = C:\data\otf\2007\ctd-07126.hex
* Software Version 1.55
* Temperature SN =  5061
* Conductivity SN =  5061
* System UpLoad Time = Aug 15 2007 17:21:15
* ds
* SeacatPlus V 1.6a  SERIAL NO. 5061    15 Aug 2007  15:31:53
* vbatt = 10.9, vlith =  8.7, ioper =  61.6 ma, ipump =  57.5 ma, 
* iext01 =  95.2 ma
* iext23 =  58.1 ma
* 
* status = not logging
* number of scans to average = 1
* samples = 153039, free = 288466, casts = 154
* mode = profile, minimum cond freq = 3000, pump delay = 60 sec
* autorun = no, ignore magnetic switch = no
* battery type = alkaline, battery cutoff =  7.3 volts
* pressure sensor = strain gauge, range = 870.0
* SBE 38 = no, Gas Tension Device = no
* Ext Volt 0 = yes, Ext Volt 1 = yes, Ext Volt 2 = yes, Ext Volt 3 = yes
* echo commands = yes
* output format = raw HEX
* S>
* 
* SeacatPlus V 1.6a  SERIAL NO. 5061    15 Aug 2007  15:32:18
* temperature:  05-oct-06
*     TA0 = 1.254184e-03
*     TA1 = 2.596730e-04
*     TA2 = 5.165612e-07
*     TA3 = 1.318931e-07
*     TOFFSET = 0.000000e+00
* conductivity:  05-oct-06
*     G = -9.978144e-01
*     H = 1.555200e-01
*     I = -4.839108e-04
*     J = 6.121100e-05
*     CF0 = 2.539936e+03
*     CPCOR = -9.570000e-08
*     CTCOR = 3.250000e-06
*     CSLOPE = 1.000000e+00
* pressure S/N = 2362539, range = 870 psia:  24-aug-06
*     PA0 = 2.171091e-01
*     PA1 = 2.647085e-03
*     PA2 = 1.419397e-11
*     PTCA0 = 5.242437e+05
*     PTCA1 = 7.545345e+00
*     PTCA2 = -1.835354e-01
*     PTCB0 = 2.537125e+01
*     PTCB1 = -1.750000e-03
*     PTCB2 = 0.000000e+00
*     PTEMPA0 = -5.753989e+01
*     PTEMPA1 = 5.235813e+01
*     PTEMPA2 = -4.015521e-02
*     POFFSET = 0.000000e+00
* volt 0: offset = -4.682842e-02, slope = 1.249147e+00
* volt 1: offset = -4.695158e-02, slope = 1.248145e+00
* volt 2: offset = -4.685263e-02, slope = 1.248783e+00
* volt 3: offset = -4.690316e-02, slope = 1.249508e+00
*     EXTFREQSF = 1.000002e+00
* dh
* cast 126 23 Jul 2007 22:17:44 samples 123514 to 124758, avg = 1, stop = mag switch
* S> 
# nquan = 10
# nvalues = 165                         
# units = specified
# name 0 = depSM: Depth [salt water, m]
# name 1 = tv290C: Temperature [ITS-90, deg C]
# name 2 = sal00: Salinity [PSU]
# name 3 = sbeox0Mg/L: Oxygen, SBE 43 [mg/l]
# name 4 = sbeox0PS: Oxygen, SBE 43 [% saturation]
# name 5 = sigma-t00: Density [sigma-t, Kg/m^3 ]
# name 6 = par: PAR/Irradiance, Biospherical/Licor
# name 7 = prdM: Pressure, Strain Gauge [db]
# name 8 = flECO-AFL: Fluorescence, Wetlab ECO-AFL/FL [mg/m^3]
# name 9 = flag: flag
# span 0 =      1.000,     85.000       
# span 1 =     8.4029,     9.6501       
# span 2 =    30.7088,    31.6806       
# span 3 =    8.78530,    9.56695       
# span 4 =   93.53362,  101.74299       
# span 5 =    23.6594,    24.6095       
# span 6 = 1.5473e+00, 9.2159e+00       
# span 7 =      1.093,     85.702       
# span 8 =     0.6301,     1.7319       
# span 9 = 0.0000e+00, 0.0000e+00       
# interval = meters: 1                  
# start_time = Jul 23 2007 22:17:44
# bad_flag = -9.990e-29
# sensor 0 = Frequency 0  temperature, 5061, 05-Oct-06
# sensor 1 = Frequency 1  conductivity, 5061, 05-Oct-06, cpcor = -9.5700e-08
# sensor 2 = Pressure Number
# sensor 3 = Extrnl Volt  0  irradiance (PAR), primary, 4751, 08/10/06
# sensor 4 = Extrnl Volt  1  Oxygen, SBE, primary, 1081, 10/24/06
# sensor 5 = Extrnl Volt  2  WET Labs, ECO_AFL
# sensor 6 = Extrnl Volt  3  userpoly 0, 0627, 10/11/06
# datcnv_date = Oct 15 2007 14:49:52, 5.37e
# datcnv_in = I:\bob d\OTF_GEM\2007\ctd-07126.hex I:\Willette\OTF\CTD\5061.con
# datcnv_skipover = 0
# filter_date = Oct 15 2007 15:02:39, 5.37e
# filter_in = I:\Willette\OTF\CTD\2007\CTD Data\ctd-07126.cnv
# filter_low_pass_tc_A = 1.000
# filter_low_pass_tc_B = 0.150
# filter_low_pass_A_vars = prdM
# filter_low_pass_B_vars =
# loopedit_date = Oct 15 2007 15:06:58, 5.37e
# loopedit_in = I:\Willette\OTF\CTD\2007\CTD Data\ctd-07126.cnv
# loopedit_minVelocity = 0.250                                                                                            
# loopedit_surfaceSoak: minDepth = 5.0, maxDepth = 20, useDeckPress = 1                                                   
# loopedit_excl_bad_scans = yes
# alignctd_date = Oct 15 2007 15:14:23, 5.37e
# alignctd_in = I:\Willette\OTF\CTD\2007\CTD Data\ctd-07126.cnv
# alignctd_adv = tv290C 0.500, sbeox0Mg/L 4.000, sbeox0PS 4.000                                                                                                                                                                      
# binavg_date = Oct 15 2007 15:18:51, 5.37e
# binavg_in = I:\Willette\OTF\CTD\2007\CTD Data\ctd-07126.cnv
# binavg_bintype = meters
# binavg_binsize = 1
# binavg_excl_bad_scans = yes
# binavg_skipover = 0
# binavg_surface_bin = no, min = 0.000, max = 0.000, value = 0.000
# file_type = ascii
*END*
      5.000     9.5990    30.7614    8.78530   93.53362    23.7043 4.6557e+00      5.063     1.5939 0.0000e+00
      6.000     9.5328    30.8288    8.78813   93.55150    23.7658 4.1789e+00      6.032     1.6590 0.0000e+00
      7.000     9.4410    30.9051    8.82949   93.98686    23.8376 3.5678e+00      7.058     1.6124 0.0000e+00
      8.000     9.3830    30.9817    8.84473   94.14445    23.9103 3.1982e+00      8.036     1.5264 0.0000e+00
      9.000     9.3592    31.0207    8.85921   94.29853    23.9474 2.8981e+00      9.077     1.4357 0.0000e+00
     10.000     9.3532    31.0305    8.83607   94.05177    23.9568 2.6568e+00     10.041     1.4272 0.0000e+00
     11.000     9.3506    31.0328    8.85856   94.28809    23.9591 2.4612e+00     11.064     1.4255 0.0000e+00
     12.000     9.3498    31.0337    8.92797   95.01798    23.9602 2.2817e+00     12.101     1.3822 0.0000e+00
     13.000     9.3510    31.0298    8.91671   94.89388    23.9569 2.1654e+00     13.192     1.3319 0.0000e+00
     14.000     9.3501    31.0270    8.86367   94.32525    23.9546 2.0450e+00     14.230     1.3380 0.0000e+00
     15.000     9.3462    31.0259    8.92587   94.97687    23.9543 1.9629e+00     15.097     1.3136 0.0000e+00
     16.000     9.3421    31.0336    8.98090   95.54729    23.9611 1.8907e+00     16.104     1.2823 0.0000e+00
     17.000     9.3422    31.0315    8.90476   94.70372    23.9596 1.8326e+00     17.248     1.2674 0.0000e+00
     18.000     9.3382    31.0292    8.86165   94.16795    23.9581 1.7845e+00     18.169     1.2941 0.0000e+00
     19.000     9.3284    31.0321    8.87633   94.26863    23.9613 1.7451e+00     19.052     1.2662 0.0000e+00
     20.000     9.3161    31.0489    8.85974   93.86289    23.9765 1.7084e+00     20.269     1.1556 0.0000e+00
     21.000     9.2720    31.0512    8.99641   95.23076    23.9815 1.6853e+00     21.081     1.1299 0.0000e+00
     22.000     9.2132    31.1152    9.14111   96.71749    24.0413 1.6609e+00     22.197     1.0290 0.0000e+00
     23.000     9.0970    31.1528    9.21931   97.51352    24.0865 1.6440e+00     23.168     0.9084 0.0000e+00
     24.000     9.0384    31.2053    9.27494   98.06691    24.1405 1.6302e+00     24.203     0.7800 0.0000e+00
     25.000     9.0229    31.2208    9.30401   98.37121    24.1561 1.6171e+00     25.260     0.7443 0.0000e+00
     26.000     8.9999    31.2261    9.32158   98.54149    24.1636 1.6075e+00     26.212     0.7257 0.0000e+00
     27.000     8.9951    31.2333    9.33050   98.62782    24.1708 1.5992e+00     27.240     0.7263 0.0000e+00
     28.000     8.9875    31.2363    9.35726   98.90665    24.1739 1.5915e+00     28.242     0.7187 0.0000e+00
     29.000     8.9825    31.2397    9.38249   99.17017    24.1776 1.5853e+00     29.249     0.7208 0.0000e+00
     30.000     8.9797    31.2407    9.40485   99.40091    24.1789 1.5801e+00     30.405     0.7178 0.0000e+00
     31.000     8.9790    31.2415    9.41623   99.51674    24.1797 1.5756e+00     31.442     0.7126 0.0000e+00
     32.000     8.9773    31.2422    9.42214   99.57076    24.1804 1.5722e+00     32.321     0.7279 0.0000e+00
     33.000     8.9750    31.2427    9.43078   99.64833    24.1811 1.5693e+00     33.600     0.7261 0.0000e+00
     34.000     8.9744    31.2434    9.43231   99.66512    24.1818 1.5666e+00     34.306     0.7184 0.0000e+00
     35.000     8.9714    31.2440    9.43901   99.71663    24.1826 1.5639e+00     35.333     0.7281 0.0000e+00
     36.000     8.9652    31.2447    9.44475   99.73519    24.1837 1.5619e+00     36.473     0.7387 0.0000e+00
     37.000     8.9629    31.2478    9.44675   99.73524    24.1868 1.5601e+00     37.305     0.7183 0.0000e+00
     38.000     8.9624    31.2498    9.45400   99.77533    24.1887 1.5591e+00     38.364     0.7149 0.0000e+00
     39.000     8.9527    31.2466    9.46348   99.77386    24.1863 1.5575e+00     39.411     0.7026 0.0000e+00
     40.000     8.9335    31.2503    9.46035   99.69126    24.1920 1.5564e+00     40.298     0.6963 0.0000e+00
     41.000     8.9195    31.2582    9.45938   99.66905    24.2008 1.5550e+00     41.477     0.6984 0.0000e+00
     42.000     8.9026    31.2581    9.46988   99.76767    24.2024 1.5548e+00     42.446     0.7014 0.0000e+00
     43.000     8.8579    31.2603    9.47507   99.78284    24.2083 1.5538e+00     43.259     0.6832 0.0000e+00
     44.000     8.8255    31.2935    9.47837   99.74176    24.2428 1.5532e+00     44.472     0.6547 0.0000e+00
     45.000     8.8230    31.2988    9.47865   99.69414    24.2480 1.5531e+00     45.510     0.6529 0.0000e+00
     46.000     8.8134    31.2980    9.47713   99.68032    24.2479 1.5522e+00     46.346     0.6455 0.0000e+00
     47.000     8.7808    31.2997    9.47698   99.68192    24.2526 1.5513e+00     47.499     0.6478 0.0000e+00
     48.000     8.7455    31.3207    9.47356   99.65952    24.2738 1.5514e+00     48.411     0.6512 0.0000e+00
     49.000     8.7090    31.3876    9.47605   99.68976    24.3330 1.5511e+00     49.552     0.6301 0.0000e+00
     50.000     8.7083    31.4306    9.47539   99.66625    24.3685 1.5510e+00     50.371     0.6727 0.0000e+00
     51.000     8.7096    31.4356    9.47362   99.63005    24.3723 1.5508e+00     51.516     0.7671 0.0000e+00
     52.000     8.7099    31.4515    9.47520   99.60573    24.3845 1.5504e+00     52.493     0.7820 0.0000e+00
     53.000     8.6973    31.4766    9.47390   99.55735    24.4053 1.5501e+00     53.457     0.8265 0.0000e+00
     54.000     8.6889    31.4919    9.47901   99.56149    24.4189 1.5503e+00     54.532     0.9021 0.0000e+00
     55.000     8.6701    31.4992    9.47524   99.46132    24.4263 1.5500e+00     55.487     0.9305 0.0000e+00
     56.000     8.6447    31.5210    9.46931   99.36233    24.4473 1.5497e+00     56.565     0.9394 0.0000e+00
     57.000     8.6198    31.5402    9.47976   99.43618    24.4658 1.5496e+00     57.583     0.9702 0.0000e+00
     58.000     8.5898    31.5582    9.48513   99.45635    24.4836 1.5499e+00     58.485     0.9729 0.0000e+00
     59.000     8.5599    31.5885    9.49267   99.42999    24.5134 1.5498e+00     59.687     0.9935 0.0000e+00
     60.000     8.5469    31.5949    9.49603   99.41549    24.5198 1.5498e+00     60.478     0.9993 0.0000e+00
     61.000     8.5254    31.6091    9.50691   99.47757    24.5342 1.5496e+00     61.617     0.9965 0.0000e+00
     62.000     8.4824    31.6135    9.52086   99.60905    24.5418 1.5495e+00     62.615     1.0316 0.0000e+00
     63.000     8.4440    31.6403    9.52964   99.70229    24.5696 1.5499e+00     63.562     1.0148 0.0000e+00
     64.000     8.4153    31.6633    9.53522   99.76024    24.5927 1.5478e+00     64.632     0.9788 0.0000e+00
     65.000     8.4055    31.6761    9.53811   99.79212    24.6052 1.5481e+00     65.536     0.9837 0.0000e+00
     66.000     8.4046    31.6806    9.53790   99.78990    24.6095 1.5473e+00     66.771     0.9715 0.0000e+00
     67.000     8.4044    31.6799    9.53662   99.77624    24.6088 1.5488e+00     67.585     0.9712 0.0000e+00
     68.000     8.4053    31.6798    9.54428   99.86098    24.6087 1.5485e+00     68.627     0.9749 0.0000e+00
     69.000     8.4052    31.6790    9.54822   99.90180    24.6080 1.5487e+00     69.694     1.0223 0.0000e+00
     70.000     8.4054    31.6797    9.55143   99.93572    24.6086 1.5488e+00     70.626     0.9888 0.0000e+00
     71.000     8.4079    31.6802    9.55604   99.98323    24.6087 1.5492e+00     71.716     1.0081 0.0000e+00
     72.000     8.4071    31.6787    9.55223   99.94446    24.6075 1.5489e+00     72.731     1.0305 0.0000e+00
     73.000     8.4072    31.6790    9.55228   99.94703    24.6077 1.5485e+00     73.690     1.0225 0.0000e+00
     74.000     8.4071    31.6785    9.55373   99.96368    24.6074 1.5487e+00     74.741     1.0186 0.0000e+00
     75.000     8.4074    31.6788    9.55530   99.98014    24.6076 1.5489e+00     75.728     0.9800 0.0000e+00
     76.000     8.4086    31.6793    9.54944   99.91847    24.6078 1.5488e+00     76.731     1.1041 0.0000e+00
     77.000     8.4088    31.6792    9.54918   99.91712    24.6077 1.5488e+00     77.708     1.0418 0.0000e+00
     78.000     8.4090    31.6790    9.54408   99.86174    24.6075 1.5486e+00     78.796     1.0251 0.0000e+00
     79.000     8.4087    31.6790    9.54657   99.88628    24.6074 1.5494e+00     79.763     1.0128 0.0000e+00
     80.000     8.4095    31.6793    9.55181   99.94121    24.6076 1.5485e+00     80.739     1.0127 0.0000e+00
     81.000     8.4085    31.6791    9.55135   99.93579    24.6075 1.5491e+00     81.783     0.9847 0.0000e+00
     82.000     8.4078    31.6792    9.54729   99.89382    24.6078 1.5486e+00     82.806     0.9935 0.0000e+00
     83.000     8.4079    31.6796    9.56537  100.08307    24.6081 1.5486e+00     83.722     1.0188 0.0000e+00
     84.000     8.4076    31.6792    9.56095  100.03803    24.6079 1.5487e+00     84.714     1.0452 0.0000e+00
     85.000     8.4085    31.6795    9.55955  100.02510    24.6080 1.5491e+00     85.702     0.9797 0.0000e+00
     84.000     8.4092    31.6795    9.56695  100.10216    24.6078 1.5483e+00     84.770     1.0619 0.0000e+00
     83.000     8.4090    31.6790    9.56684  100.09979    24.6074 1.5483e+00     83.746     1.0446 0.0000e+00
     82.000     8.4093    31.6790    9.56099  100.04217    24.6074 1.5481e+00     82.869     1.0327 0.0000e+00
     81.000     8.4083    31.6795    9.55237   99.94997    24.6079 1.5479e+00     81.680     1.0777 0.0000e+00
     80.000     8.4095    31.6790    9.55344   99.96161    24.6074 1.5480e+00     80.817     1.0370 0.0000e+00
     79.000     8.4095    31.6798    9.56084  100.03769    24.6081 1.5478e+00     79.660     0.9857 0.0000e+00
     78.000     8.4094    31.6789    9.55671   99.99459    24.6073 1.5483e+00     78.751     0.9883 0.0000e+00
     77.000     8.4089    31.6790    9.55208   99.94154    24.6074 1.5487e+00     77.737     0.9826 0.0000e+00
     76.000     8.4093    31.6796    9.55548   99.97624    24.6079 1.5485e+00     76.708     0.9988 0.0000e+00
     75.000     8.4068    31.6784    9.56187  100.04395    24.6072 1.5477e+00     75.720     1.0235 0.0000e+00
     74.000     8.4064    31.6795    9.56446  100.07466    24.6083 1.5475e+00     74.752     0.9877 0.0000e+00
     73.000     8.4069    31.6790    9.55968  100.01984    24.6078 1.5476e+00     73.715     1.0441 0.0000e+00
     72.000     8.4087    31.6795    9.56377  100.06123    24.6080 1.5478e+00     72.640     1.0093 0.0000e+00
     71.000     8.4060    31.6785    9.56185  100.03913    24.6074 1.5479e+00     71.688     1.0075 0.0000e+00
     70.000     8.4056    31.6793    9.56370  100.05709    24.6082 1.5480e+00     70.703     1.0183 0.0000e+00
     69.000     8.4047    31.6791    9.56176  100.03344    24.6081 1.5479e+00     69.655     1.0828 0.0000e+00
     68.000     8.4042    31.6793    9.56464  100.06213    24.6084 1.5478e+00     68.665     1.1149 0.0000e+00
     67.000     8.4030    31.6779    9.56328  100.04993    24.6074 1.5478e+00     67.565     0.9807 0.0000e+00
     66.000     8.4029    31.6770    9.55799  100.00573    24.6068 1.5474e+00     66.666     1.0252 0.0000e+00
     65.000     8.4042    31.6752    9.55722  100.05146    24.6054 1.5474e+00     65.550     1.0326 0.0000e+00
     64.000     8.4095    31.6731    9.55861  100.12176    24.6032 1.5476e+00     64.636     1.0850 0.0000e+00
     63.000     8.4364    31.6641    9.55087  100.10008    24.5933 1.5476e+00     63.529     0.9605 0.0000e+00
     62.000     8.4646    31.6490    9.54955  100.12878    24.5772 1.5477e+00     62.639     0.9817 0.0000e+00
     61.000     8.4963    31.6316    9.54414  100.11510    24.5584 1.5478e+00     61.561     1.0149 0.0000e+00
     60.000     8.5204    31.6224    9.53384  100.01897    24.5480 1.5476e+00     60.613     1.0006 0.0000e+00
     59.000     8.5429    31.6040    9.52664  100.02651    24.5293 1.5478e+00     59.506     1.0497 0.0000e+00
     58.000     8.5479    31.6000    9.52612  100.07608    24.5254 1.5478e+00     58.629     0.9876 0.0000e+00
     57.000     8.5942    31.5771    9.52519  100.13606    24.5024 1.5478e+00     57.522     1.1127 0.0000e+00
     56.000     8.6307    31.5387    9.51890  100.10515    24.4654 1.5478e+00     56.475     1.0230 0.0000e+00
     55.000     8.6635    31.5177    9.51395  100.06625    24.4448 1.5478e+00     55.528     0.9338 0.0000e+00
     54.000     8.6841    31.4929    9.51747  100.11173    24.4214 1.5477e+00     54.489     0.8791 0.0000e+00
     53.000     8.6979    31.4719    9.52042  100.13437    24.4030 1.5478e+00     53.496     0.8569 0.0000e+00
     52.000     8.7068    31.4511    9.52495  100.16220    24.3851 1.5478e+00     52.525     0.7791 0.0000e+00
     51.000     8.7085    31.4374    9.52611  100.16906    24.3738 1.5480e+00     51.533     0.8005 0.0000e+00
     50.000     8.7058    31.4196    9.52431  100.20236    24.3602 1.5483e+00     50.504     0.7702 0.0000e+00
     49.000     8.7130    31.3848    9.52257  100.25942    24.3326 1.5485e+00     49.465     0.7340 0.0000e+00
     48.000     8.7453    31.3508    9.52822  100.36478    24.3021 1.5484e+00     48.486     0.6879 0.0000e+00
     47.000     8.7886    31.3224    9.52471  100.35220    24.2735 1.5487e+00     47.436     0.6766 0.0000e+00
     46.000     8.8150    31.3021    9.52393  100.40949    24.2524 1.5488e+00     46.372     0.6305 0.0000e+00
     45.000     8.8220    31.2999    9.52314  100.47556    24.2496 1.5493e+00     45.445     0.6691 0.0000e+00
     44.000     8.8538    31.2957    9.51787  100.45641    24.2429 1.5496e+00     44.466     0.6496 0.0000e+00
     43.000     8.8980    31.2703    9.51039  100.42678    24.2152 1.5497e+00     43.268     0.6696 0.0000e+00
     42.000     8.9083    31.2679    9.50085  100.35993    24.2118 1.5505e+00     42.435     0.6937 0.0000e+00
     41.000     8.9299    31.2629    9.51427  100.52246    24.2048 1.5509e+00     41.332     0.7027 0.0000e+00
     40.000     8.9454    31.2578    9.51645  100.55362    24.1983 1.5515e+00     40.508     0.7339 0.0000e+00
     39.000     8.9589    31.2508    9.50331  100.42463    24.1903 1.5519e+00     39.282     0.7111 0.0000e+00
     38.000     8.9621    31.2491    9.51088  100.50727    24.1885 1.5529e+00     38.494     0.7200 0.0000e+00
     37.000     8.9684    31.2440    9.50971  100.49951    24.1833 1.5541e+00     37.198     0.7421 0.0000e+00
     36.000     8.9694    31.2440    9.51035  100.50588    24.1832 1.5554e+00     36.366     0.7836 0.0000e+00
     35.000     8.9710    31.2437    9.51246  100.53766    24.1827 1.5566e+00     35.335     0.7770 0.0000e+00
     34.000     8.9710    31.2424    9.51087  100.53299    24.1815 1.5587e+00     34.276     0.7839 0.0000e+00
     33.000     8.9740    31.2450    9.50940  100.53280    24.1834 1.5601e+00     33.323     0.7799 0.0000e+00
     32.000     8.9795    31.2438    9.50537  100.50392    24.1817 1.5623e+00     32.293     0.7588 0.0000e+00
     31.000     8.9880    31.2387    9.50890  100.57698    24.1766 1.5654e+00     31.349     0.7726 0.0000e+00
     30.000     8.9965    31.2318    9.50731  100.59558    24.1697 1.5682e+00     30.258     0.7748 0.0000e+00
     29.000     9.0157    31.2295    9.50892  100.68978    24.1657 1.5721e+00     29.293     0.7777 0.0000e+00
     28.000     9.0351    31.2191    9.50643  100.75133    24.1544 1.5762e+00     28.297     0.8171 0.0000e+00
     27.000     9.0816    31.2010    9.49974  100.83733    24.1342 1.5820e+00     27.221     0.8925 0.0000e+00
     26.000     9.1368    31.1726    9.50268  100.95148    24.1047 1.5888e+00     26.252     0.9383 0.0000e+00
     25.000     9.2106    31.1149    9.50664  101.06472    24.0473 1.5972e+00     25.243     1.0575 0.0000e+00
     24.000     9.2599    31.0766    9.50059  101.04766    24.0094 1.6069e+00     24.245     1.1232 0.0000e+00
     23.000     9.2976    31.0498    9.50049  101.07311    23.9824 1.6193e+00     23.169     1.2518 0.0000e+00
     22.000     9.3181    31.0312    9.50611  101.15253    23.9639 1.6344e+00     22.236     1.3194 0.0000e+00
     21.000     9.3306    31.0206    9.50830  101.18876    23.9531 1.6521e+00     21.158     1.3374 0.0000e+00
     20.000     9.3421    31.0153    9.50696  101.17842    23.9476 1.6739e+00     20.212     1.3445 0.0000e+00
     19.000     9.3480    31.0100    9.51315  101.24700    23.9421 1.7016e+00     19.143     1.3909 0.0000e+00
     18.000     9.3500    31.0089    9.50920  101.20567    23.9407 1.7339e+00     18.164     1.3654 0.0000e+00
     17.000     9.3509    31.0102    9.50523  101.16156    23.9417 1.7719e+00     17.226     1.4094 0.0000e+00
     16.000     9.3513    31.0108    9.51122  101.22554    23.9420 1.8215e+00     16.030     1.4767 0.0000e+00
     15.000     9.3507    31.0108    9.50909  101.20478    23.9420 1.8789e+00     15.201     1.4592 0.0000e+00
     14.000     9.3496    31.0126    9.50742  101.21664    23.9437 1.9518e+00     14.112     1.4720 0.0000e+00
     13.000     9.3510    31.0116    9.51210  101.34433    23.9427 2.0384e+00     13.067     1.4427 0.0000e+00
     12.000     9.3614    31.0059    9.51714  101.52320    23.9373 2.1423e+00     12.193     1.4621 0.0000e+00
     11.000     9.3955    30.9841    9.52328  101.68929    23.9168 2.2772e+00     11.073     1.5431 0.0000e+00
     10.000     9.4839    30.9090    9.52465  101.74299    23.8465 2.4534e+00     10.100     1.6751 0.0000e+00
      9.000     9.5446    30.8325    9.52121  101.72997    23.7748 2.6595e+00      9.136     1.7179 0.0000e+00
      8.000     9.5808    30.7901    9.51908  101.72893    23.7348 2.9105e+00      8.013     1.7319 0.0000e+00
      7.000     9.5948    30.7733    9.51570  101.71752    23.7192 3.2236e+00      7.051     1.6750 0.0000e+00
      6.000     9.6066    30.7570    9.51167  101.69475    23.7043 3.5911e+00      6.094     1.6340 0.0000e+00
      5.000     9.6233    30.7418    9.51018  101.69365    23.6901 4.0402e+00      5.024     1.6773 0.0000e+00
      4.000     9.6366    30.7240    9.50036  101.59235    23.6738 4.5609e+00      4.052     1.6089 0.0000e+00
      3.000     9.6456    30.7138    9.49895  101.57979    23.6643 5.1559e+00      3.030     1.6248 0.0000e+00
      2.000     9.6500    30.7091    9.43141  100.84830    23.6597 6.1154e+00      2.028     1.6261 0.0000e+00
      1.000     9.6501    30.7088    9.31131   99.54378    23.6594 9.2159e+00      1.093     1.6171 0.0000e+00
