* Sea-Bird SBE19plus Data File:
* FileName = C:\data\otf\2007\ctd-07125.hex
* Software Version 1.55
* Temperature SN =  5061
* Conductivity SN =  5061
* System UpLoad Time = Aug 15 2007 17:20:21
* ds
* SeacatPlus V 1.6a  SERIAL NO. 5061    15 Aug 2007  15:31:53
* vbatt = 10.9, vlith =  8.7, ioper =  61.6 ma, ipump =  57.5 ma, 
* iext01 =  95.2 ma
* iext23 =  58.1 ma
* 
* status = not logging
* number of scans to average = 1
* samples = 153039, free = 288466, casts = 154
* mode = profile, minimum cond freq = 3000, pump delay = 60 sec
* autorun = no, ignore magnetic switch = no
* battery type = alkaline, battery cutoff =  7.3 volts
* pressure sensor = strain gauge, range = 870.0
* SBE 38 = no, Gas Tension Device = no
* Ext Volt 0 = yes, Ext Volt 1 = yes, Ext Volt 2 = yes, Ext Volt 3 = yes
* echo commands = yes
* output format = raw HEX
* S>
* 
* SeacatPlus V 1.6a  SERIAL NO. 5061    15 Aug 2007  15:32:18
* temperature:  05-oct-06
*     TA0 = 1.254184e-03
*     TA1 = 2.596730e-04
*     TA2 = 5.165612e-07
*     TA3 = 1.318931e-07
*     TOFFSET = 0.000000e+00
* conductivity:  05-oct-06
*     G = -9.978144e-01
*     H = 1.555200e-01
*     I = -4.839108e-04
*     J = 6.121100e-05
*     CF0 = 2.539936e+03
*     CPCOR = -9.570000e-08
*     CTCOR = 3.250000e-06
*     CSLOPE = 1.000000e+00
* pressure S/N = 2362539, range = 870 psia:  24-aug-06
*     PA0 = 2.171091e-01
*     PA1 = 2.647085e-03
*     PA2 = 1.419397e-11
*     PTCA0 = 5.242437e+05
*     PTCA1 = 7.545345e+00
*     PTCA2 = -1.835354e-01
*     PTCB0 = 2.537125e+01
*     PTCB1 = -1.750000e-03
*     PTCB2 = 0.000000e+00
*     PTEMPA0 = -5.753989e+01
*     PTEMPA1 = 5.235813e+01
*     PTEMPA2 = -4.015521e-02
*     POFFSET = 0.000000e+00
* volt 0: offset = -4.682842e-02, slope = 1.249147e+00
* volt 1: offset = -4.695158e-02, slope = 1.248145e+00
* volt 2: offset = -4.685263e-02, slope = 1.248783e+00
* volt 3: offset = -4.690316e-02, slope = 1.249508e+00
*     EXTFREQSF = 1.000002e+00
* dh
* cast 125 23 Jul 2007 21:05:18 samples 122499 to 123513, avg = 1, stop = mag switch
* S> 
# nquan = 10
# nvalues = 153                         
# units = specified
# name 0 = depSM: Depth [salt water, m]
# name 1 = tv290C: Temperature [ITS-90, deg C]
# name 2 = sal00: Salinity [PSU]
# name 3 = sbeox0Mg/L: Oxygen, SBE 43 [mg/l]
# name 4 = sbeox0PS: Oxygen, SBE 43 [% saturation]
# name 5 = sigma-t00: Density [sigma-t, Kg/m^3 ]
# name 6 = par: PAR/Irradiance, Biospherical/Licor
# name 7 = prdM: Pressure, Strain Gauge [db]
# name 8 = flECO-AFL: Fluorescence, Wetlab ECO-AFL/FL [mg/m^3]
# name 9 = flag: flag
# span 0 =      1.000,     79.000       
# span 1 =     8.4849,    10.6203       
# span 2 =    29.5714,    31.6419       
# span 3 =    8.56499,    9.52815       
# span 4 =   92.91454,  101.79661       
# span 5 =    22.6168,    24.5668       
# span 6 = 1.5476e+00, 5.1511e+01       
# span 7 =      1.085,     79.560       
# span 8 =     0.6669,     1.5519       
# span 9 = 0.0000e+00, 0.0000e+00       
# interval = meters: 1                  
# start_time = Jul 23 2007 21:05:18
# bad_flag = -9.990e-29
# sensor 0 = Frequency 0  temperature, 5061, 05-Oct-06
# sensor 1 = Frequency 1  conductivity, 5061, 05-Oct-06, cpcor = -9.5700e-08
# sensor 2 = Pressure Number
# sensor 3 = Extrnl Volt  0  irradiance (PAR), primary, 4751, 08/10/06
# sensor 4 = Extrnl Volt  1  Oxygen, SBE, primary, 1081, 10/24/06
# sensor 5 = Extrnl Volt  2  WET Labs, ECO_AFL
# sensor 6 = Extrnl Volt  3  userpoly 0, 0627, 10/11/06
# datcnv_date = Oct 15 2007 14:49:51, 5.37e
# datcnv_in = I:\bob d\OTF_GEM\2007\ctd-07125.hex I:\Willette\OTF\CTD\5061.con
# datcnv_skipover = 0
# filter_date = Oct 15 2007 15:02:39, 5.37e
# filter_in = I:\Willette\OTF\CTD\2007\CTD Data\ctd-07125.cnv
# filter_low_pass_tc_A = 1.000
# filter_low_pass_tc_B = 0.150
# filter_low_pass_A_vars = prdM
# filter_low_pass_B_vars =
# loopedit_date = Oct 15 2007 15:06:58, 5.37e
# loopedit_in = I:\Willette\OTF\CTD\2007\CTD Data\ctd-07125.cnv
# loopedit_minVelocity = 0.250                                                                                            
# loopedit_surfaceSoak: minDepth = 5.0, maxDepth = 20, useDeckPress = 1                                                   
# loopedit_excl_bad_scans = yes
# alignctd_date = Oct 15 2007 15:14:23, 5.37e
# alignctd_in = I:\Willette\OTF\CTD\2007\CTD Data\ctd-07125.cnv
# alignctd_adv = tv290C 0.500, sbeox0Mg/L 4.000, sbeox0PS 4.000                                                                                                                                                                      
# binavg_date = Oct 15 2007 15:18:51, 5.37e
# binavg_in = I:\Willette\OTF\CTD\2007\CTD Data\ctd-07125.cnv
# binavg_bintype = meters
# binavg_binsize = 1
# binavg_excl_bad_scans = yes
# binavg_skipover = 0
# binavg_surface_bin = no, min = 0.000, max = 0.000, value = 0.000
# file_type = ascii
*END*
      5.000    10.6183    29.5852    8.56499   92.91454    22.6268 1.1397e+01      5.192     1.4822 0.0000e+00
      6.000    10.6178    29.5853    8.65848   93.92254    22.6269 9.1462e+00      6.034     1.4977 0.0000e+00
      7.000    10.6191    29.5849    8.74035   94.69584    22.6266 7.2959e+00      7.059     1.4953 0.0000e+00
      8.000    10.6203    29.5827    8.81547   95.26047    22.6246 5.9017e+00      8.148     1.4613 0.0000e+00
      9.000    10.6193    29.5822    8.84063   95.39630    22.6241 4.8211e+00      9.159     1.4487 0.0000e+00
     10.000    10.5986    29.5908    8.83230   95.13833    22.6316 4.0482e+00     10.153     1.4203 0.0000e+00
     11.000    10.5011    29.6538    8.87341   95.41276    22.6876 3.4716e+00     11.108     1.3727 0.0000e+00
     12.000    10.3694    29.7930    8.93671   95.86694    22.8159 2.9999e+00     12.055     1.3761 0.0000e+00
     13.000    10.2631    29.9481    8.98750   95.97766    22.9606 2.6213e+00     13.238     1.3658 0.0000e+00
     14.000    10.1509    30.0425    8.96987   95.47390    23.0472 2.3948e+00     14.279     1.3282 0.0000e+00
     15.000    10.0594    30.1468    8.97587   95.46245    23.1445 2.2043e+00     15.160     1.2410 0.0000e+00
     16.000     9.9553    30.2584    9.01019   95.76800    23.2459 2.0644e+00     16.008     1.2063 0.0000e+00
     17.000     9.7572    30.4429    9.05616   96.19278    23.4144 1.9490e+00     17.023     1.0981 0.0000e+00
     18.000     9.4581    30.7201    9.05364   96.12545    23.6772 1.8629e+00     18.292     0.9021 0.0000e+00
     19.000     9.3515    30.8786    9.01415   95.66308    23.8323 1.8046e+00     19.265     0.7159 0.0000e+00
     20.000     9.3231    30.9167    9.03342   95.84189    23.8688 1.7596e+00     20.076     0.7252 0.0000e+00
     21.000     9.2734    30.9630    9.08550   96.37537    23.9123 1.7189e+00     21.022     0.7087 0.0000e+00
     22.000     9.2445    31.0179    9.06827   96.13444    23.9628 1.6856e+00     22.246     0.6700 0.0000e+00
     23.000     9.2187    31.0159    8.98508   95.13378    23.9641 1.6619e+00     23.300     0.6751 0.0000e+00
     24.000     9.1979    31.0382    9.00832   95.30966    23.9852 1.6428e+00     24.172     0.6669 0.0000e+00
     25.000     9.1753    31.0720    9.04308   95.64321    24.0149 1.6254e+00     25.088     0.7026 0.0000e+00
     26.000     9.1354    31.1098    8.98254   94.94011    24.0494 1.6120e+00     26.290     0.7383 0.0000e+00
     27.000     9.0679    31.1226    9.01038   95.16919    24.0677 1.6025e+00     27.241     0.7107 0.0000e+00
     28.000     9.0252    31.1766    9.06989   95.66321    24.1190 1.5933e+00     28.182     0.6692 0.0000e+00
     29.000     8.9961    31.2141    9.07495   95.59477    24.1541 1.5856e+00     29.392     0.6891 0.0000e+00
     30.000     8.9636    31.2103    9.07197   95.53044    24.1548 1.5810e+00     30.296     0.7000 0.0000e+00
     31.000     8.8902    31.2515    9.09596   95.76127    24.1942 1.5752e+00     31.262     0.7010 0.0000e+00
     32.000     8.8164    31.3279    9.08947   95.64919    24.2679 1.5718e+00     32.329     0.7433 0.0000e+00
     33.000     8.7848    31.3575    9.12390   95.96124    24.2980 1.5700e+00     33.370     0.7280 0.0000e+00
     34.000     8.7657    31.3733    9.13245   96.03583    24.3135 1.5677e+00     34.270     0.7384 0.0000e+00
     35.000     8.7509    31.3967    9.07789   95.42284    24.3346 1.5649e+00     35.412     0.7436 0.0000e+00
     36.000     8.7213    31.4004    9.10266   95.66010    24.3400 1.5631e+00     36.333     0.7597 0.0000e+00
     37.000     8.7025    31.4319    9.13583   95.98130    24.3693 1.5613e+00     37.295     0.7729 0.0000e+00
     38.000     8.6870    31.4436    9.14927   96.09834    24.3806 1.5598e+00     38.403     0.7763 0.0000e+00
     39.000     8.6691    31.4535    9.14825   96.06608    24.3909 1.5587e+00     39.354     0.7763 0.0000e+00
     40.000     8.6527    31.4701    9.13224   95.83006    24.4065 1.5578e+00     40.345     0.7765 0.0000e+00
     41.000     8.6364    31.4829    9.18123   96.27082    24.4191 1.5566e+00     41.372     0.8029 0.0000e+00
     42.000     8.6259    31.4910    9.26043   97.08739    24.4273 1.5557e+00     42.382     0.7862 0.0000e+00
     43.000     8.6093    31.4896    9.33142   97.81854    24.4281 1.5551e+00     43.439     0.7882 0.0000e+00
     44.000     8.5715    31.4673    9.36663   98.18037    24.4148 1.5544e+00     44.360     0.7562 0.0000e+00
     45.000     8.5457    31.4854    9.39961   98.53377    24.4350 1.5542e+00     45.544     0.7394 0.0000e+00
     46.000     8.5349    31.5149    9.41227   98.68747    24.4593 1.5536e+00     46.430     0.7373 0.0000e+00
     47.000     8.5265    31.5363    9.42877   98.86502    24.4778 1.5531e+00     47.381     0.7957 0.0000e+00
     48.000     8.5223    31.5498    9.44175   99.00329    24.4894 1.5532e+00     48.642     0.7959 0.0000e+00
     49.000     8.5211    31.5729    9.44619   99.05041    24.5078 1.5528e+00     49.480     0.8300 0.0000e+00
     50.000     8.5245    31.5973    9.45210   99.11147    24.5267 1.5525e+00     50.330     0.8981 0.0000e+00
     51.000     8.5256    31.5970    9.45876   99.17909    24.5260 1.5516e+00     51.645     0.9541 0.0000e+00
     52.000     8.5252    31.5992    9.46592   99.23852    24.5278 1.5485e+00     52.550     0.9400 0.0000e+00
     53.000     8.5248    31.6008    9.46754   99.23582    24.5290 1.5501e+00     53.364     0.9489 0.0000e+00
     54.000     8.5241    31.6018    9.47591   99.30309    24.5299 1.5522e+00     54.549     0.9609 0.0000e+00
     55.000     8.5199    31.6027    9.48157   99.36209    24.5309 1.5519e+00     55.543     0.9403 0.0000e+00
     56.000     8.5045    31.6104    9.48783   99.42851    24.5384 1.5517e+00     56.564     0.9179 0.0000e+00
     57.000     8.4925    31.6277    9.49395   99.49560    24.5541 1.5516e+00     57.447     0.9617 0.0000e+00
     58.000     8.4893    31.6354    9.49350   99.49227    24.5614 1.5517e+00     58.549     1.0187 0.0000e+00
     59.000     8.4895    31.6360    9.49555   99.50928    24.5620 1.5520e+00     59.574     1.0339 0.0000e+00
     60.000     8.4913    31.6342    9.49574   99.51006    24.5603 1.5523e+00     60.499     1.0023 0.0000e+00
     61.000     8.4921    31.6322    9.49494   99.50145    24.5585 1.5534e+00     61.617     1.0205 0.0000e+00
     62.000     8.4887    31.6358    9.50035   99.55826    24.5617 1.5528e+00     62.622     1.0141 0.0000e+00
     63.000     8.4879    31.6387    9.50559   99.61374    24.5642 1.5519e+00     63.517     1.0192 0.0000e+00
     64.000     8.4874    31.6398    9.50762   99.63525    24.5652 1.5512e+00     64.660     1.0345 0.0000e+00
     65.000     8.4873    31.6411    9.51142   99.67500    24.5662 1.5513e+00     65.673     1.0607 0.0000e+00
     66.000     8.4875    31.6409    9.51371   99.69905    24.5660 1.5514e+00     66.539     1.0470 0.0000e+00
     67.000     8.4877    31.6413    9.51193   99.68122    24.5663 1.5515e+00     67.664     1.0594 0.0000e+00
     68.000     8.4877    31.6403    9.51589   99.72231    24.5655 1.5511e+00     68.660     1.0704 0.0000e+00
     69.000     8.4879    31.6409    9.51538   99.71757    24.5660 1.5513e+00     69.623     1.0782 0.0000e+00
     70.000     8.4878    31.6405    9.51780   99.74183    24.5657 1.5520e+00     70.803     1.0404 0.0000e+00
     71.000     8.4880    31.6414    9.52188   99.78617    24.5664 1.5513e+00     71.562     1.0643 0.0000e+00
     72.000     8.4879    31.6410    9.51975   99.76531    24.5660 1.5513e+00     72.884     1.0321 0.0000e+00
     73.000     8.4879    31.6411    9.51937   99.76125    24.5661 1.5511e+00     73.643     1.1758 0.0000e+00
     74.000     8.4889    31.6408    9.51840   99.75192    24.5658 1.5510e+00     74.712     1.0135 0.0000e+00
     75.000     8.4890    31.6407    9.51677   99.73543    24.5657 1.5508e+00     75.721     1.0302 0.0000e+00
     76.000     8.4892    31.6408    9.52315   99.80305    24.5658 1.5507e+00     76.724     1.0590 0.0000e+00
     77.000     8.4896    31.6403    9.52323   99.80467    24.5653 1.5508e+00     77.729     1.0888 0.0000e+00
     78.000     8.4901    31.6401    9.52267   99.80000    24.5651 1.5504e+00     78.676     1.0895 0.0000e+00
     79.000     8.4917    31.6401    9.51715   99.74162    24.5649 1.5507e+00     79.560     1.0844 0.0000e+00
     78.000     8.4913    31.6394    9.51143   99.68308    24.5642 1.5504e+00     78.723     1.0440 0.0000e+00
     77.000     8.4911    31.6396    9.51037   99.66930    24.5644 1.5500e+00     77.757     1.0600 0.0000e+00
     76.000     8.4915    31.6406    9.51181   99.68470    24.5654 1.5501e+00     76.627     1.1050 0.0000e+00
     75.000     8.4904    31.6396    9.51482   99.71105    24.5645 1.5500e+00     75.712     1.1209 0.0000e+00
     74.000     8.4901    31.6407    9.50917   99.65272    24.5655 1.5501e+00     74.804     1.0641 0.0000e+00
     73.000     8.4873    31.6406    9.51086   99.66919    24.5659 1.5499e+00     73.620     1.0890 0.0000e+00
     72.000     8.4881    31.6410    9.50806   99.64074    24.5660 1.5498e+00     72.739     1.1096 0.0000e+00
     71.000     8.4875    31.6415    9.50761   99.63480    24.5665 1.5500e+00     71.616     1.1226 0.0000e+00
     70.000     8.4879    31.6410    9.50921   99.65067    24.5661 1.5500e+00     70.699     1.0962 0.0000e+00
     69.000     8.4875    31.6419    9.51711   99.73202    24.5668 1.5498e+00     69.622     1.0539 0.0000e+00
     68.000     8.4870    31.6410    9.51843   99.74597    24.5661 1.5497e+00     68.658     1.0934 0.0000e+00
     67.000     8.4865    31.6411    9.51592   99.71929    24.5663 1.5498e+00     67.645     1.1195 0.0000e+00
     66.000     8.4869    31.6413    9.51704   99.73282    24.5665 1.5497e+00     66.623     1.0488 0.0000e+00
     65.000     8.4865    31.6403    9.51805   99.74195    24.5657 1.5496e+00     65.615     1.1141 0.0000e+00
     64.000     8.4874    31.6412    9.51231   99.68034    24.5664 1.5499e+00     64.659     1.1544 0.0000e+00
     63.000     8.4865    31.6401    9.50914   99.64663    24.5655 1.5493e+00     63.541     1.0346 0.0000e+00
     62.000     8.4861    31.6401    9.51188   99.67296    24.5656 1.5497e+00     62.594     1.0549 0.0000e+00
     61.000     8.4863    31.6411    9.51644   99.72080    24.5664 1.5495e+00     61.579     1.0996 0.0000e+00
     60.000     8.4849    31.6397    9.51817   99.73865    24.5655 1.5501e+00     60.567     1.0685 0.0000e+00
     59.000     8.4856    31.6388    9.51508   99.70801    24.5647 1.5503e+00     59.658     1.0090 0.0000e+00
     58.000     8.4859    31.6361    9.51522   99.71305    24.5625 1.5502e+00     58.482     1.1424 0.0000e+00
     57.000     8.4877    31.6338    9.51637   99.72707    24.5605 1.5500e+00     57.639     1.0661 0.0000e+00
     56.000     8.4910    31.6279    9.51763   99.75746    24.5555 1.5503e+00     56.477     1.1001 0.0000e+00
     55.000     8.4949    31.6196    9.51531   99.75115    24.5485 1.5498e+00     55.560     1.0821 0.0000e+00
     54.000     8.5020    31.6181    9.50437   99.65075    24.5463 1.5500e+00     54.486     1.0216 0.0000e+00
     53.000     8.5133    31.6105    9.50506   99.65944    24.5390 1.5500e+00     53.504     1.0288 0.0000e+00
     52.000     8.5202    31.6026    9.50469   99.65389    24.5314 1.5499e+00     52.509     0.9998 0.0000e+00
     51.000     8.5222    31.5991    9.51215   99.72346    24.5282 1.5476e+00     51.497     1.0298 0.0000e+00
     50.000     8.5225    31.5952    9.51759   99.76609    24.5251 1.5486e+00     50.429     0.9954 0.0000e+00
     49.000     8.5209    31.5907    9.52065   99.78551    24.5217 1.5500e+00     49.495     1.0085 0.0000e+00
     48.000     8.5181    31.5760    9.52815   99.85686    24.5107 1.5505e+00     48.384     0.9859 0.0000e+00
     47.000     8.5176    31.5637    9.52206   99.79771    24.5010 1.5511e+00     47.511     0.9136 0.0000e+00
     46.000     8.5188    31.5424    9.52231   99.80406    24.4845 1.5510e+00     46.279     0.8486 0.0000e+00
     45.000     8.5242    31.5348    9.52278   99.81398    24.4778 1.5515e+00     45.525     0.8345 0.0000e+00
     44.000     8.5328    31.5090    9.52190   99.86067    24.4563 1.5523e+00     44.351     0.7930 0.0000e+00
     43.000     8.5389    31.4965    9.51712   99.87919    24.4458 1.5527e+00     43.452     0.7610 0.0000e+00
     42.000     8.5650    31.4869    9.51409   99.88332    24.4354 1.5530e+00     42.360     0.7673 0.0000e+00
     41.000     8.6018    31.4760    9.51671   99.92551    24.4216 1.5528e+00     41.372     0.8132 0.0000e+00
     40.000     8.6157    31.4643    9.51851   99.96587    24.4092 1.5542e+00     40.401     0.8201 0.0000e+00
     39.000     8.6249    31.4589    9.51954  100.00278    24.4034 1.5566e+00     39.340     0.8206 0.0000e+00
     38.000     8.6349    31.4538    9.51896  100.02187    24.3983 1.5578e+00     38.411     0.8295 0.0000e+00
     37.000     8.6515    31.4409    9.51650  100.03361    24.3856 1.5597e+00     37.267     0.8344 0.0000e+00
     36.000     8.6649    31.4306    9.51771  100.07420    24.3758 1.5620e+00     36.372     0.7868 0.0000e+00
     35.000     8.6844    31.4133    9.51381  100.06030    24.3594 1.5646e+00     35.336     0.7897 0.0000e+00
     34.000     8.7036    31.3955    9.51045  100.06282    24.3427 1.5674e+00     34.328     0.7910 0.0000e+00
     33.000     8.7206    31.3775    9.51077  100.12852    24.3258 1.5712e+00     33.295     0.7876 0.0000e+00
     32.000     8.7400    31.3622    9.51486  100.23172    24.3113 1.5748e+00     32.355     0.7785 0.0000e+00
     31.000     8.7777    31.3337    9.52252  100.44383    24.2837 1.5801e+00     31.298     0.7869 0.0000e+00
     30.000     8.8221    31.3049    9.52098  100.51365    24.2556 1.5867e+00     30.281     0.7641 0.0000e+00
     29.000     8.8918    31.2519    9.51871  100.54556    24.2039 1.5950e+00     29.305     0.7477 0.0000e+00
     28.000     8.9425    31.2055    9.50971  100.53289    24.1586 1.6044e+00     28.220     0.7256 0.0000e+00
     27.000     8.9707    31.1852    9.49385  100.43867    24.1383 1.6159e+00     27.285     0.6927 0.0000e+00
     26.000     9.0144    31.1555    9.48821  100.48050    24.1089 1.6306e+00     26.234     0.7115 0.0000e+00
     25.000     9.0601    31.1265    9.49981  100.66082    24.0797 1.6490e+00     25.223     0.7186 0.0000e+00
     24.000     9.1097    31.0909    9.48688  100.57252    24.0432 1.6722e+00     24.192     0.7188 0.0000e+00
     23.000     9.1329    31.0801    9.47875  100.50075    24.0314 1.6995e+00     23.255     0.7478 0.0000e+00
     22.000     9.1649    31.0529    9.48700  100.61062    24.0048 1.7347e+00     22.164     0.7677 0.0000e+00
     21.000     9.1747    31.0390    9.48928  100.68557    23.9919 1.7789e+00     21.260     0.7813 0.0000e+00
     20.000     9.1901    31.0200    9.49369  100.80538    23.9749 1.8345e+00     20.100     0.7397 0.0000e+00
     19.000     9.2188    30.9935    9.49342  100.84614    23.9508 1.9028e+00     19.220     0.6924 0.0000e+00
     18.000     9.2577    30.9571    9.48986  100.86942    23.9160 1.9838e+00     18.125     0.7081 0.0000e+00
     17.000     9.2838    30.9406    9.48619  101.04407    23.8993 2.0889e+00     17.203     0.7323 0.0000e+00
     16.000     9.3107    30.9194    9.48383  101.33101    23.8781 2.2228e+00     16.105     0.7546 0.0000e+00
     15.000     9.4123    30.8747    9.47174  101.56582    23.8338 2.4036e+00     15.153     0.7684 0.0000e+00
     14.000     9.5901    30.7209    9.46299  101.78600    23.6859 2.6289e+00     14.141     0.9235 0.0000e+00
     13.000     9.8470    30.4765    9.44018  101.78018    23.4606 2.9523e+00     13.100     1.1232 0.0000e+00
     12.000    10.0476    30.2118    9.42278  101.79661    23.2146 3.3640e+00     12.201     1.2100 0.0000e+00
     11.000    10.2274    30.0310    9.38861  101.56492    23.0472 3.9435e+00     11.083     1.4011 0.0000e+00
     10.000    10.3754    29.8259    9.36787  101.47311    22.8559 4.7151e+00     10.064     1.5137 0.0000e+00
      9.000    10.4446    29.7698    9.35781  101.44176    22.8033 5.6783e+00      9.107     1.4340 0.0000e+00
      8.000    10.5353    29.6642    9.34273  101.31186    22.7057 6.9974e+00      8.031     1.4634 0.0000e+00
      7.000    10.5826    29.6095    9.33159  101.19692    22.6538 8.6590e+00      7.098     1.4754 0.0000e+00
      6.000    10.6040    29.5816    9.32575  101.14635    22.6269 1.0810e+01      5.983     1.5519 0.0000e+00
      5.000    10.6053    29.5763    9.32179  101.09248    22.6222 1.3652e+01      5.087     1.5398 0.0000e+00
      4.000    10.6122    29.5752    9.31057  100.98063    22.6202 1.7378e+01      4.000     1.5238 0.0000e+00
      3.000    10.6085    29.5715    9.31172  100.99082    22.6174 2.1956e+01      3.046     1.5251 0.0000e+00
      2.000    10.6115    29.5750    9.25246  100.31501    22.6203 2.8119e+01      2.042     1.4900 0.0000e+00
      1.000    10.6127    29.5714    9.16286   99.26013    22.6168 5.1511e+01      1.085     1.4710 0.0000e+00
