* Sea-Bird SBE19plus Data File:
* FileName = C:\data\otf\2007\ctd-07052.hex
* Software Version 1.55
* Temperature SN =  5061
* Conductivity SN =  5061
* System UpLoad Time = Aug 15 2007 16:11:08
* ds
* SeacatPlus V 1.6a  SERIAL NO. 5061    15 Aug 2007  15:31:53
* vbatt = 10.9, vlith =  8.7, ioper =  61.6 ma, ipump =  57.5 ma, 
* iext01 =  95.2 ma
* iext23 =  58.1 ma
* 
* status = not logging
* number of scans to average = 1
* samples = 153039, free = 288466, casts = 154
* mode = profile, minimum cond freq = 3000, pump delay = 60 sec
* autorun = no, ignore magnetic switch = no
* battery type = alkaline, battery cutoff =  7.3 volts
* pressure sensor = strain gauge, range = 870.0
* SBE 38 = no, Gas Tension Device = no
* Ext Volt 0 = yes, Ext Volt 1 = yes, Ext Volt 2 = yes, Ext Volt 3 = yes
* echo commands = yes
* output format = raw HEX
* S>
* 
* SeacatPlus V 1.6a  SERIAL NO. 5061    15 Aug 2007  15:32:18
* temperature:  05-oct-06
*     TA0 = 1.254184e-03
*     TA1 = 2.596730e-04
*     TA2 = 5.165612e-07
*     TA3 = 1.318931e-07
*     TOFFSET = 0.000000e+00
* conductivity:  05-oct-06
*     G = -9.978144e-01
*     H = 1.555200e-01
*     I = -4.839108e-04
*     J = 6.121100e-05
*     CF0 = 2.539936e+03
*     CPCOR = -9.570000e-08
*     CTCOR = 3.250000e-06
*     CSLOPE = 1.000000e+00
* pressure S/N = 2362539, range = 870 psia:  24-aug-06
*     PA0 = 2.171091e-01
*     PA1 = 2.647085e-03
*     PA2 = 1.419397e-11
*     PTCA0 = 5.242437e+05
*     PTCA1 = 7.545345e+00
*     PTCA2 = -1.835354e-01
*     PTCB0 = 2.537125e+01
*     PTCB1 = -1.750000e-03
*     PTCB2 = 0.000000e+00
*     PTEMPA0 = -5.753989e+01
*     PTEMPA1 = 5.235813e+01
*     PTEMPA2 = -4.015521e-02
*     POFFSET = 0.000000e+00
* volt 0: offset = -4.682842e-02, slope = 1.249147e+00
* volt 1: offset = -4.695158e-02, slope = 1.248145e+00
* volt 2: offset = -4.685263e-02, slope = 1.248783e+00
* volt 3: offset = -4.690316e-02, slope = 1.249508e+00
*     EXTFREQSF = 1.000002e+00
* dh
* cast  52 11 Jul 2007 09:55:20 samples 43426 to 43613, avg = 4, stop = mag switch
* S> 
# nquan = 10
# nvalues = 82                          
# units = specified
# name 0 = depSM: Depth [salt water, m]
# name 1 = tv290C: Temperature [ITS-90, deg C]
# name 2 = sal00: Salinity [PSU]
# name 3 = sbeox0Mg/L: Oxygen, SBE 43 [mg/l]
# name 4 = sbeox0PS: Oxygen, SBE 43 [% saturation]
# name 5 = sigma-t00: Density [sigma-t, Kg/m^3 ]
# name 6 = par: PAR/Irradiance, Biospherical/Licor
# name 7 = prdM: Pressure, Strain Gauge [db]
# name 8 = flECO-AFL: Fluorescence, Wetlab ECO-AFL/FL [mg/m^3]
# name 9 = flag: flag
# span 0 =      1.000,     43.000       
# span 1 =     8.5987,     8.6401       
# span 2 =    31.5735,    31.6250       
# span 3 =    9.12306,    9.78166       
# span 4 =   95.83978,  102.80242       
# span 5 =    24.4944,    24.5325       
# span 6 = 1.8750e+00, 5.2367e+02       
# span 7 =      2.124,     42.662       
# span 8 =     0.7523,     1.0845       
# span 9 = 0.0000e+00, 0.0000e+00       
# interval = meters: 1                  
# start_time = Jul 11 2007 09:55:20
# bad_flag = -9.990e-29
# sensor 0 = Frequency 0  temperature, 5061, 05-Oct-06
# sensor 1 = Frequency 1  conductivity, 5061, 05-Oct-06, cpcor = -9.5700e-08
# sensor 2 = Pressure Number
# sensor 3 = Extrnl Volt  0  irradiance (PAR), primary, 4751, 08/10/06
# sensor 4 = Extrnl Volt  1  Oxygen, SBE, primary, 1081, 10/24/06
# sensor 5 = Extrnl Volt  2  WET Labs, ECO_AFL
# sensor 6 = Extrnl Volt  3  userpoly 0, 0627, 10/11/06
# datcnv_date = Oct 15 2007 14:49:45, 5.37e
# datcnv_in = I:\bob d\OTF_GEM\2007\ctd-07052.hex I:\Willette\OTF\CTD\5061.con
# datcnv_skipover = 0
# filter_date = Oct 15 2007 15:02:24, 5.37e
# filter_in = I:\Willette\OTF\CTD\2007\CTD Data\ctd-07052.cnv
# filter_low_pass_tc_A = 1.000
# filter_low_pass_tc_B = 0.150
# filter_low_pass_A_vars = prdM
# filter_low_pass_B_vars =
# loopedit_date = Oct 15 2007 15:06:47, 5.37e
# loopedit_in = I:\Willette\OTF\CTD\2007\CTD Data\ctd-07052.cnv
# loopedit_minVelocity = 0.250                                                                                            
# loopedit_surfaceSoak: minDepth = 5.0, maxDepth = 20, useDeckPress = 1                                                   
# loopedit_excl_bad_scans = yes
# alignctd_date = Oct 15 2007 15:14:15, 5.37e
# alignctd_in = I:\Willette\OTF\CTD\2007\CTD Data\ctd-07052.cnv
# alignctd_adv = tv290C 0.500, sbeox0Mg/L 4.000, sbeox0PS 4.000                                                                                                                                                                      
# binavg_date = Oct 15 2007 15:18:43, 5.37e
# binavg_in = I:\Willette\OTF\CTD\2007\CTD Data\ctd-07052.cnv
# binavg_bintype = meters
# binavg_binsize = 1
# binavg_excl_bad_scans = yes
# binavg_skipover = 0
# binavg_surface_bin = no, min = 0.000, max = 0.000, value = 0.000
# file_type = ascii
*END*
      4.000     8.6325    31.6039    9.20120   96.67342    24.5142 1.7968e+02      4.542     0.7523 0.0000e+00
      5.000     8.6256    31.6250    9.14651   96.09306    24.5325 1.5180e+02      5.219     0.7646 0.0000e+00
      6.000     8.6230    31.6153    9.12306   95.83978    24.5245 1.3417e+02      6.154     0.8455 0.0000e+00
      7.000     8.6265    31.6135    9.19195   96.56819    24.5242 1.1142e+02      6.893     0.8418 0.0000e+00
      8.000     8.6289    31.6199    9.14031   96.01861    24.5290 9.3615e+01      8.081     0.8551 0.0000e+00
      9.000     8.6235    31.6106    9.18346   96.46776    24.5213 7.8683e+01      9.509     0.9294 0.0000e+00
     10.000     8.6203    31.6023    9.17838   96.41571    24.5155 6.6643e+01     10.601     0.8990 0.0000e+00
     11.000     8.6189    31.5927    9.15268   96.14575    24.5084 5.6646e+01     11.564     0.8758 0.0000e+00
     12.000     8.6185    31.5911    9.14046   96.01643    24.5075 4.8051e+01     12.448     0.9140 0.0000e+00
     13.000     8.6153    31.5938    9.15343   96.13946    24.5096 4.0611e+01     13.499     0.9142 0.0000e+00
     14.000     8.6152    31.5834    9.24627   97.10467    24.5015 3.4984e+01     14.358     0.8660 0.0000e+00
     15.000     8.6140    31.5877    9.38352   98.54624    24.5054 2.9952e+01     15.065     0.8522 0.0000e+00
     16.000     8.6112    31.5910    9.52345  100.01560    24.5080 2.5301e+01     16.161     0.8015 0.0000e+00
     17.000     8.6110    31.5839    9.58408  100.65556    24.5027 2.1781e+01     17.103     0.7746 0.0000e+00
     18.000     8.6116    31.5885    9.61006  100.92822    24.5066 1.8852e+01     17.947     0.7934 0.0000e+00
     19.000     8.6079    31.5900    9.64818  101.32696    24.5077 1.6147e+01     19.117     0.8046 0.0000e+00
     20.000     8.6085    31.5833    9.66393  101.49189    24.5027 1.4146e+01     19.972     0.8495 0.0000e+00
     21.000     8.6079    31.5885    9.67725  101.63182    24.5070 1.2294e+01     21.014     0.8377 0.0000e+00
     22.000     8.6081    31.5875    9.68940  101.75934    24.5064 1.0699e+01     22.049     0.8139 0.0000e+00
     23.000     8.6081    31.5878    9.70048  101.87546    24.5066 9.2906e+00     23.213     0.7988 0.0000e+00
     24.000     8.6057    31.5862    9.71354  102.01180    24.5053 8.1029e+00     24.381     0.8160 0.0000e+00
     25.000     8.6005    31.5813    9.72356  102.11872    24.5017 7.1354e+00     25.537     0.7910 0.0000e+00
     26.000     8.5998    31.5784    9.72900  102.17759    24.5001 6.3424e+00     26.532     0.8093 0.0000e+00
     27.000     8.6006    31.5780    9.73395  102.23026    24.5001 5.6386e+00     27.537     0.7656 0.0000e+00
     28.000     8.6012    31.5786    9.73685  102.26176    24.5006 5.0610e+00     28.375     0.7875 0.0000e+00
     29.000     8.6010    31.5791    9.74202  102.31864    24.5008 4.5283e+00     29.252     0.8022 0.0000e+00
     30.000     8.6002    31.5783    9.75279  102.43229    24.5002 4.0773e+00     30.304     0.9660 0.0000e+00
     31.000     8.6003    31.5782    9.75042  102.40748    24.5002 3.7141e+00     31.096     0.7687 0.0000e+00
     32.000     8.6003    31.5782    9.74553  102.35646    24.5002 3.3824e+00     31.973     0.8373 0.0000e+00
     33.000     8.6001    31.5785    9.74944  102.39935    24.5005 3.1155e+00     32.963     0.8280 0.0000e+00
     34.000     8.6001    31.5780    9.73982  102.30079    24.5001 2.8770e+00     34.222     0.8798 0.0000e+00
     35.000     8.6001    31.5787    9.73137  102.21160    24.5006 2.6975e+00     35.090     0.8218 0.0000e+00
     36.000     8.6000    31.5779    9.73857  102.28956    24.5000 2.5257e+00     36.254     0.8387 0.0000e+00
     37.000     8.6005    31.5772    9.73958  102.29388    24.4994 2.3882e+00     37.089     0.7868 0.0000e+00
     38.000     8.6010    31.5797    9.74130  102.31160    24.5014 2.2629e+00     38.137     0.8436 0.0000e+00
     39.000     8.6010    31.5802    9.74893  102.39683    24.5016 2.1624e+00     38.916     0.8159 0.0000e+00
     40.000     8.6024    31.5800    9.75039  102.40813    24.5015 2.0678e+00     40.019     0.7836 0.0000e+00
     41.000     8.6021    31.5820    9.75758  102.48440    24.5031 2.0004e+00     40.576     0.8099 0.0000e+00
     42.000     8.6022    31.5824    9.75729  102.48286    24.5033 1.9333e+00     41.447     0.7744 0.0000e+00
     43.000     8.6031    31.5831    9.76888  102.60130    24.5037 1.8750e+00     42.662     0.8194 0.0000e+00
     42.000     8.6028    31.5820    9.77199  102.62998    24.5028 1.9343e+00     41.824     0.9336 0.0000e+00
     41.000     8.6016    31.5821    9.77709  102.68314    24.5029 1.9966e+00     41.030     0.8271 0.0000e+00
     40.000     8.6016    31.5808    9.78165  102.72960    24.5021 2.0736e+00     40.101     0.8118 0.0000e+00
     39.000     8.6016    31.5806    9.78166  102.72951    24.5018 2.1601e+00     39.300     0.8044 0.0000e+00
     38.000     8.6019    31.5808    9.77784  102.69133    24.5020 2.2580e+00     38.146     0.8332 0.0000e+00
     37.000     8.6017    31.5803    9.77041  102.61366    24.5016 2.3783e+00     37.202     0.8351 0.0000e+00
     36.000     8.6020    31.5799    9.76333  102.54013    24.5013 2.5128e+00     36.162     0.8352 0.0000e+00
     35.000     8.6013    31.5800    9.75985  102.50182    24.5014 2.6692e+00     35.265     0.8267 0.0000e+00
     34.000     8.6009    31.5791    9.77000  102.60633    24.5007 2.8703e+00     34.222     0.8548 0.0000e+00
     33.000     8.6003    31.5796    9.77909  102.69967    24.5012 3.0956e+00     33.327     0.7907 0.0000e+00
     32.000     8.6009    31.5788    9.78151  102.72553    24.5006 3.3596e+00     32.245     0.8266 0.0000e+00
     31.000     8.6004    31.5792    9.77511  102.65593    24.5009 3.6622e+00     31.392     0.8275 0.0000e+00
     30.000     8.6019    31.5783    9.77677  102.67537    24.5002 4.0289e+00     30.188     0.8771 0.0000e+00
     29.000     8.6019    31.5790    9.77913  102.69938    24.5006 4.4653e+00     29.329     0.8773 0.0000e+00
     28.000     8.6021    31.5781    9.77353  102.63870    24.4999 4.9944e+00     28.131     0.9124 0.0000e+00
     27.000     8.6014    31.5784    9.77499  102.65564    24.5002 5.5566e+00     27.231     0.9614 0.0000e+00
     26.000     8.6002    31.5780    9.77429  102.64691    24.4998 6.2459e+00     26.224     0.8649 0.0000e+00
     25.000     8.5998    31.5785    9.77439  102.64939    24.5004 7.0555e+00     25.267     0.8582 0.0000e+00
     24.000     8.6000    31.5776    9.77283  102.63395    24.4998 8.0304e+00     24.115     0.8729 0.0000e+00
     23.000     8.5988    31.5784    9.77187  102.62716    24.5005 9.1395e+00     23.298     1.0405 0.0000e+00
     22.000     8.5996    31.5771    9.75940  102.50116    24.4995 1.0543e+01     22.135     0.8831 0.0000e+00
     21.000     8.5994    31.5780    9.76548  102.56771    24.5002 1.2136e+01     21.091     0.8252 0.0000e+00
     20.000     8.5987    31.5778    9.76863  102.60154    24.5000 1.4034e+01     20.171     0.8349 0.0000e+00
     19.000     8.5996    31.5779    9.76408  102.55476    24.5003 1.6143e+01     18.938     0.7955 0.0000e+00
     18.000     8.5991    31.5774    9.76261  102.53862    24.4998 1.8696e+01     18.244     0.8106 0.0000e+00
     17.000     8.5997    31.5768    9.76743  102.58724    24.4993 2.1710e+01     16.992     0.8677 0.0000e+00
     16.000     8.5993    31.5772    9.77120  102.62024    24.4996 2.5128e+01     16.226     0.8860 0.0000e+00
     15.000     8.6006    31.5771    9.76808  102.59191    24.4995 2.9418e+01     15.188     0.7587 0.0000e+00
     14.000     8.6032    31.5773    9.76346  102.54739    24.4995 3.4267e+01     14.046     0.8523 0.0000e+00
     13.000     8.6041    31.5771    9.75657  102.48867    24.4990 4.0035e+01     13.193     0.8602 0.0000e+00
     12.000     8.6052    31.5762    9.76329  102.57210    24.4981 4.6831e+01     12.159     0.8154 0.0000e+00
     11.000     8.6063    31.5751    9.77942  102.75678    24.4970 5.4657e+01     11.136     0.8246 0.0000e+00
     10.000     8.6062    31.5742    9.78084  102.80242    24.4962 6.4402e+01     10.195     1.0845 0.0000e+00
      9.000     8.6057    31.5736    9.76537  102.64856    24.4957 7.6481e+01      9.094     1.0024 0.0000e+00
      8.000     8.6022    31.5736    9.65974  101.55299    24.4958 9.0504e+01      8.188     1.0321 0.0000e+00
      7.000     8.6035    31.5735 -9.990e-29 -9.990e-29    24.4960 1.0759e+02      7.142     0.8950 0.0000e+00
      6.000     8.6048    31.5742 -9.990e-29 -9.990e-29    24.4966 1.2752e+02      6.294     0.9195 0.0000e+00
      5.000     8.6110    31.5751 -9.990e-29 -9.990e-29    24.4970 1.4997e+02      5.159     0.8762 0.0000e+00
      4.000     8.6162    31.5764 -9.990e-29 -9.990e-29    24.4974 1.8026e+02      4.334     0.8686 0.0000e+00
      3.000     8.6245    31.5763 -9.990e-29 -9.990e-29    24.4964 2.1366e+02      3.455     0.8225 0.0000e+00
      2.000     8.6357    31.5756 -9.990e-29 -9.990e-29    24.4950 2.6585e+02      2.765     0.8317 0.0000e+00
      1.000     8.6401    31.5771 -9.990e-29 -9.990e-29    24.4944 5.2367e+02      2.124     0.7823 0.0000e+00
