* Sea-Bird SBE19plus Data File:
* FileName = C:\data\otf\2007\ctd-07107.hex
* Software Version 1.55
* Temperature SN =  5061
* Conductivity SN =  5061
* System UpLoad Time = Aug 15 2007 16:35:52
* ds
* SeacatPlus V 1.6a  SERIAL NO. 5061    15 Aug 2007  15:31:53
* vbatt = 10.9, vlith =  8.7, ioper =  61.6 ma, ipump =  57.5 ma, 
* iext01 =  95.2 ma
* iext23 =  58.1 ma
* 
* status = not logging
* number of scans to average = 1
* samples = 153039, free = 288466, casts = 154
* mode = profile, minimum cond freq = 3000, pump delay = 60 sec
* autorun = no, ignore magnetic switch = no
* battery type = alkaline, battery cutoff =  7.3 volts
* pressure sensor = strain gauge, range = 870.0
* SBE 38 = no, Gas Tension Device = no
* Ext Volt 0 = yes, Ext Volt 1 = yes, Ext Volt 2 = yes, Ext Volt 3 = yes
* echo commands = yes
* output format = raw HEX
* S>
* 
* SeacatPlus V 1.6a  SERIAL NO. 5061    15 Aug 2007  15:32:18
* temperature:  05-oct-06
*     TA0 = 1.254184e-03
*     TA1 = 2.596730e-04
*     TA2 = 5.165612e-07
*     TA3 = 1.318931e-07
*     TOFFSET = 0.000000e+00
* conductivity:  05-oct-06
*     G = -9.978144e-01
*     H = 1.555200e-01
*     I = -4.839108e-04
*     J = 6.121100e-05
*     CF0 = 2.539936e+03
*     CPCOR = -9.570000e-08
*     CTCOR = 3.250000e-06
*     CSLOPE = 1.000000e+00
* pressure S/N = 2362539, range = 870 psia:  24-aug-06
*     PA0 = 2.171091e-01
*     PA1 = 2.647085e-03
*     PA2 = 1.419397e-11
*     PTCA0 = 5.242437e+05
*     PTCA1 = 7.545345e+00
*     PTCA2 = -1.835354e-01
*     PTCB0 = 2.537125e+01
*     PTCB1 = -1.750000e-03
*     PTCB2 = 0.000000e+00
*     PTEMPA0 = -5.753989e+01
*     PTEMPA1 = 5.235813e+01
*     PTEMPA2 = -4.015521e-02
*     POFFSET = 0.000000e+00
* volt 0: offset = -4.682842e-02, slope = 1.249147e+00
* volt 1: offset = -4.695158e-02, slope = 1.248145e+00
* volt 2: offset = -4.685263e-02, slope = 1.248783e+00
* volt 3: offset = -4.690316e-02, slope = 1.249508e+00
*     EXTFREQSF = 1.000002e+00
* dh
* cast 107 21 Jul 2007 10:33:17 samples 68226 to 69209, avg = 1, stop = mag switch
* S> 
# nquan = 10
# nvalues = 129                         
# units = specified
# name 0 = depSM: Depth [salt water, m]
# name 1 = tv290C: Temperature [ITS-90, deg C]
# name 2 = sal00: Salinity [PSU]
# name 3 = sbeox0Mg/L: Oxygen, SBE 43 [mg/l]
# name 4 = sbeox0PS: Oxygen, SBE 43 [% saturation]
# name 5 = sigma-t00: Density [sigma-t, Kg/m^3 ]
# name 6 = par: PAR/Irradiance, Biospherical/Licor
# name 7 = prdM: Pressure, Strain Gauge [db]
# name 8 = flECO-AFL: Fluorescence, Wetlab ECO-AFL/FL [mg/m^3]
# name 9 = flag: flag
# span 0 =      1.000,     67.000       
# span 1 =     8.6883,     8.8652       
# span 2 =    31.4130,    31.5392       
# span 3 =    8.76195,    9.58327       
# span 4 =   92.35568,  101.06440       
# span 5 =    24.3329,    24.4455       
# span 6 = 1.5633e+00, 1.5017e+03       
# span 7 =      1.064,     67.427       
# span 8 =     0.7501,     1.6515       
# span 9 = 0.0000e+00, 0.0000e+00       
# interval = meters: 1                  
# start_time = Jul 21 2007 10:33:17
# bad_flag = -9.990e-29
# sensor 0 = Frequency 0  temperature, 5061, 05-Oct-06
# sensor 1 = Frequency 1  conductivity, 5061, 05-Oct-06, cpcor = -9.5700e-08
# sensor 2 = Pressure Number
# sensor 3 = Extrnl Volt  0  irradiance (PAR), primary, 4751, 08/10/06
# sensor 4 = Extrnl Volt  1  Oxygen, SBE, primary, 1081, 10/24/06
# sensor 5 = Extrnl Volt  2  WET Labs, ECO_AFL
# sensor 6 = Extrnl Volt  3  userpoly 0, 0627, 10/11/06
# datcnv_date = Oct 15 2007 14:49:47, 5.37e
# datcnv_in = I:\bob d\OTF_GEM\2007\ctd-07107.hex I:\Willette\OTF\CTD\5061.con
# datcnv_skipover = 0
# filter_date = Oct 15 2007 15:02:29, 5.37e
# filter_in = I:\Willette\OTF\CTD\2007\CTD Data\ctd-07107.cnv
# filter_low_pass_tc_A = 1.000
# filter_low_pass_tc_B = 0.150
# filter_low_pass_A_vars = prdM
# filter_low_pass_B_vars =
# loopedit_date = Oct 15 2007 15:06:51, 5.37e
# loopedit_in = I:\Willette\OTF\CTD\2007\CTD Data\ctd-07107.cnv
# loopedit_minVelocity = 0.250                                                                                            
# loopedit_surfaceSoak: minDepth = 5.0, maxDepth = 20, useDeckPress = 1                                                   
# loopedit_excl_bad_scans = yes
# alignctd_date = Oct 15 2007 15:14:18, 5.37e
# alignctd_in = I:\Willette\OTF\CTD\2007\CTD Data\ctd-07107.cnv
# alignctd_adv = tv290C 0.500, sbeox0Mg/L 4.000, sbeox0PS 4.000                                                                                                                                                                      
# binavg_date = Oct 15 2007 15:18:46, 5.37e
# binavg_in = I:\Willette\OTF\CTD\2007\CTD Data\ctd-07107.cnv
# binavg_bintype = meters
# binavg_binsize = 1
# binavg_excl_bad_scans = yes
# binavg_skipover = 0
# binavg_surface_bin = no, min = 0.000, max = 0.000, value = 0.000
# file_type = ascii
*END*
      5.000     8.8352    31.5392    8.76195   92.35568    24.4324 3.9650e+02      5.225     0.9214 0.0000e+00
      6.000     8.8056    31.4984    8.88057   93.58536    24.4056 3.6761e+02      6.072     1.0178 0.0000e+00
      7.000     8.8064    31.5196    8.90945   93.87458    24.4234 2.7634e+02      7.121     1.1295 0.0000e+00
      8.000     8.7851    31.4950    8.89754   93.72067    24.4057 2.2878e+02      8.136     1.1563 0.0000e+00
      9.000     8.7722    31.5015    8.93902   94.13575    24.4136 1.8733e+02      9.058     1.2561 0.0000e+00
     10.000     8.7658    31.5183    9.00523   94.83378    24.4282 1.5813e+02     10.118     1.3881 0.0000e+00
     11.000     8.7534    31.5053    9.01980   94.97900    24.4189 1.2536e+02     11.156     1.4828 0.0000e+00
     12.000     8.7409    31.5181    9.00861   94.84408    24.4314 1.0786e+02     12.143     1.5398 0.0000e+00
     13.000     8.7347    31.5151    9.03560   95.11730    24.4303 8.7147e+01     13.089     1.5930 0.0000e+00
     14.000     8.7371    31.5253    9.06281   95.40402    24.4384 7.0296e+01     14.160     1.5857 0.0000e+00
     15.000     8.7302    31.5128    9.08106   95.58349    24.4288 5.9803e+01     15.179     1.5838 0.0000e+00
     16.000     8.7242    31.5166    9.10072   95.78316    24.4329 5.0420e+01     16.150     1.5193 0.0000e+00
     17.000     8.7203    31.5196    9.09865   95.75381    24.4362 4.2991e+01     17.123     1.5002 0.0000e+00
     18.000     8.7198    31.5226    9.10550   95.82001    24.4387 3.6452e+01     18.164     1.4624 0.0000e+00
     19.000     8.7119    31.5205    9.12781   96.05728    24.4376 3.1211e+01     19.163     1.4859 0.0000e+00
     20.000     8.7083    31.5292    9.12039   95.97802    24.4455 2.6532e+01     20.203     1.5073 0.0000e+00
     21.000     8.7051    31.5241    9.11930   95.97058    24.4419 2.2821e+01     21.232     1.4533 0.0000e+00
     22.000     8.7038    31.5241    9.11875   95.95773    24.4423 1.9642e+01     22.159     1.4809 0.0000e+00
     23.000     8.7052    31.5267    9.16191   96.41028    24.4443 1.6827e+01     23.205     1.4447 0.0000e+00
     24.000     8.7052    31.5251    9.17365   96.53371    24.4431 1.4525e+01     24.225     1.4334 0.0000e+00
     25.000     8.7077    31.5220    9.19181   96.70992    24.4402 1.2430e+01     25.329     1.4313 0.0000e+00
     26.000     8.7025    31.5169    9.22718   97.08427    24.4365 1.0963e+01     26.239     1.4982 0.0000e+00
     27.000     8.7041    31.5250    9.19323   96.72950    24.4433 9.5735e+00     27.264     1.4370 0.0000e+00
     28.000     8.7027    31.5167    9.15103   96.27901    24.4363 8.4352e+00     28.391     1.4385 0.0000e+00
     29.000     8.6971    31.5148    9.17886   96.56813    24.4356 7.5227e+00     29.231     1.4249 0.0000e+00
     30.000     8.6963    31.5249    9.21951   96.99833    24.4442 6.6159e+00     30.190     1.4015 0.0000e+00
     31.000     8.6992    31.5234    9.21436   96.93195    24.4426 5.8460e+00     31.358     1.4157 0.0000e+00
     32.000     8.6965    31.5196    9.24477   97.24751    24.4398 5.2453e+00     32.376     1.4177 0.0000e+00
     33.000     8.6945    31.5183    9.29742   97.80235    24.4391 4.7328e+00     33.277     1.4146 0.0000e+00
     34.000     8.6954    31.5237    9.34654   98.31922    24.4435 4.2516e+00     34.258     1.4161 0.0000e+00
     35.000     8.6937    31.5058    9.39462   98.82523    24.4292 3.8432e+00     35.460     1.4095 0.0000e+00
     36.000     8.6915    31.5072    9.41612   99.05212    24.4309 3.5454e+00     36.332     1.4142 0.0000e+00
     37.000     8.6917    31.5087    9.43252   99.22423    24.4322 3.2625e+00     37.319     1.4093 0.0000e+00
     38.000     8.6916    31.5096    9.44626   99.36675    24.4328 3.0024e+00     38.418     1.4105 0.0000e+00
     39.000     8.6919    31.5096    9.45869   99.49636    24.4329 2.8034e+00     39.320     1.4182 0.0000e+00
     40.000     8.6923    31.5091    9.46266   99.53857    24.4324 2.6172e+00     40.353     1.4268 0.0000e+00
     41.000     8.6915    31.5092    9.47401   99.65766    24.4325 2.4646e+00     41.547     1.4703 0.0000e+00
     42.000     8.6904    31.5112    9.48063   99.72679    24.4342 2.3567e+00     42.387     1.4252 0.0000e+00
     43.000     8.6899    31.5121    9.48743   99.79810    24.4351 2.2276e+00     43.290     1.4108 0.0000e+00
     44.000     8.6898    31.5126    9.49034   99.82859    24.4355 2.1237e+00     44.473     1.4226 0.0000e+00
     45.000     8.6892    31.5131    9.49242   99.85015    24.4359 2.0492e+00     45.388     1.4161 0.0000e+00
     46.000     8.6885    31.5157    9.49033   99.82868    24.4380 1.9745e+00     46.390     1.4192 0.0000e+00
     47.000     8.6883    31.5165    9.49619   99.89010    24.4388 1.9134e+00     47.533     1.4280 0.0000e+00
     48.000     8.6885    31.5165    9.50136   99.94480    24.4388 1.8642e+00     48.446     1.4297 0.0000e+00
     49.000     8.6885    31.5153    9.50173   99.94873    24.4378 1.8181e+00     49.432     1.4340 0.0000e+00
     50.000     8.6885    31.5161    9.50614   99.99503    24.4384 1.7800e+00     50.457     1.4737 0.0000e+00
     51.000     8.6883    31.5160    9.51351  100.07315    24.4384 1.7458e+00     51.482     1.5081 0.0000e+00
     52.000     8.6885    31.5165    9.51541  100.09313    24.4388 1.7190e+00     52.587     1.4684 0.0000e+00
     53.000     8.6885    31.5165    9.51914  100.13249    24.4387 1.6965e+00     53.406     1.4649 0.0000e+00
     54.000     8.6885    31.5161    9.52272  100.17013    24.4384 1.6730e+00     54.517     1.4647 0.0000e+00
     55.000     8.6886    31.5169    9.52722  100.21811    24.4391 1.6558e+00     55.588     1.5475 0.0000e+00
     56.000     8.6885    31.5168    9.52804  100.22644    24.4389 1.6409e+00     56.494     1.5039 0.0000e+00
     57.000     8.6886    31.5171    9.53029  100.25065    24.4392 1.6275e+00     57.510     1.4863 0.0000e+00
     58.000     8.6887    31.5168    9.53102  100.25832    24.4390 1.6159e+00     58.536     1.4486 0.0000e+00
     59.000     8.6888    31.5170    9.52985  100.24593    24.4391 1.5975e+00     59.588     1.4439 0.0000e+00
     60.000     8.6887    31.5174    9.52839  100.23084    24.4394 1.5950e+00     60.540     1.4526 0.0000e+00
     61.000     8.6887    31.5182    9.52882  100.23524    24.4400 1.5892e+00     61.604     1.4766 0.0000e+00
     62.000     8.6887    31.5178    9.52888  100.23588    24.4397 1.5834e+00     62.615     1.4817 0.0000e+00
     63.000     8.6886    31.5179    9.52879  100.23384    24.4398 1.5778e+00     63.544     1.4635 0.0000e+00
     64.000     8.6887    31.5182    9.53211  100.26866    24.4401 1.5737e+00     64.643     1.5050 0.0000e+00
     65.000     8.6888    31.5179    9.53143  100.26555    24.4398 1.5700e+00     65.568     1.5238 0.0000e+00
     66.000     8.6887    31.5174    9.53517  100.29510    24.4394 1.5662e+00     66.482     1.5949 0.0000e+00
     67.000     8.6926    31.5175    9.52394  100.18966    24.4391 1.5633e+00     67.427     1.5861 0.0000e+00
     66.000     8.6949    31.5163    9.52937  100.24953    24.4375 1.5656e+00     66.608     1.5996 0.0000e+00
     65.000     8.6935    31.5178    9.52828  100.23784    24.4390 1.5684e+00     65.493     1.5965 0.0000e+00
     64.000     8.6924    31.5171    9.52466  100.20111    24.4385 1.5725e+00     64.649     1.5946 0.0000e+00
     63.000     8.6922    31.5189    9.51824  100.12803    24.4401 1.5769e+00     63.527     1.6160 0.0000e+00
     62.000     8.6930    31.5186    9.51901  100.14301    24.4398 1.5817e+00     62.646     1.6515 0.0000e+00
     61.000     8.6913    31.5175    9.51742  100.12125    24.4390 1.5882e+00     61.553     1.6331 0.0000e+00
     60.000     8.6936    31.5193    9.52031  100.15337    24.4403 1.5959e+00     60.605     1.5949 0.0000e+00
     59.000     8.6913    31.5172    9.51163  100.06159    24.4387 1.6041e+00     59.580     1.5903 0.0000e+00
     58.000     8.6921    31.5185    9.51738  100.11862    24.4397 1.6134e+00     58.535     1.6192 0.0000e+00
     57.000     8.6922    31.5182    9.51771  100.12667    24.4396 1.6242e+00     57.611     1.5940 0.0000e+00
     56.000     8.6908    31.5162    9.52282  100.17402    24.4381 1.6379e+00     56.449     1.5374 0.0000e+00
     55.000     8.6922    31.5172    9.52494  100.19834    24.4387 1.6529e+00     55.603     1.5433 0.0000e+00
     54.000     8.6893    31.5173    9.52771  100.22817    24.4392 1.6693e+00     54.443     1.6200 0.0000e+00
     53.000     8.6907    31.5174    9.52862  100.23418    24.4391 1.6891e+00     53.487     1.5519 0.0000e+00
     52.000     8.6912    31.5173    9.52141  100.15891    24.4389 1.7132e+00     52.604     1.5227 0.0000e+00
     51.000     8.6894    31.5155    9.52600  100.20677    24.4378 1.7420e+00     51.425     1.4727 0.0000e+00
     50.000     8.6899    31.5158    9.53432  100.29412    24.4379 1.7742e+00     50.497     1.4986 0.0000e+00
     49.000     8.6899    31.5160    9.53513  100.30147    24.4381 1.8120e+00     49.487     1.4816 0.0000e+00
     48.000     8.6900    31.5148    9.52906  100.23611    24.4372 1.8560e+00     48.376     1.5068 0.0000e+00
     47.000     8.6892    31.5138    9.53433  100.29229    24.4365 1.9077e+00     47.462     1.4398 0.0000e+00
     46.000     8.6902    31.5146    9.53632  100.31472    24.4371 1.9637e+00     46.416     1.3853 0.0000e+00
     45.000     8.6893    31.5139    9.53858  100.33733    24.4366 2.0348e+00     45.437     1.5580 0.0000e+00
     44.000     8.6894    31.5160    9.53750  100.32374    24.4382 2.1138e+00     44.446     1.4798 0.0000e+00
     43.000     8.6893    31.5157    9.53387  100.28716    24.4380 2.2096e+00     43.421     1.5115 0.0000e+00
     42.000     8.6890    31.5124    9.53285  100.27634    24.4354 2.3201e+00     42.373     1.4778 0.0000e+00
     41.000     8.6899    31.5123    9.53100  100.25502    24.4352 2.4485e+00     41.400     1.4523 0.0000e+00
     40.000     8.6896    31.5124    9.53973  100.34900    24.4353 2.5963e+00     40.399     1.5932 0.0000e+00
     39.000     8.6892    31.5114    9.53554  100.30120    24.4346 2.7740e+00     39.326     1.5054 0.0000e+00
     38.000     8.6904    31.5121    9.53577  100.30325    24.4351 2.9703e+00     38.425     1.4284 0.0000e+00
     37.000     8.6883    31.5115    9.53474  100.29454    24.4347 3.2146e+00     37.340     1.4550 0.0000e+00
     36.000     8.6886    31.5117    9.53717  100.32125    24.4350 3.4894e+00     36.309     1.4565 0.0000e+00
     35.000     8.6895    31.5105    9.53966  100.34903    24.4339 3.8230e+00     35.344     1.3728 0.0000e+00
     34.000     8.6904    31.5098    9.54499  100.40590    24.4332 4.2037e+00     34.341     1.3378 0.0000e+00
     33.000     8.6913    31.5090    9.55065  100.46472    24.4324 4.6576e+00     33.331     1.4288 0.0000e+00
     32.000     8.6918    31.5084    9.54385  100.39479    24.4319 5.1825e+00     32.303     1.4761 0.0000e+00
     31.000     8.6913    31.5081    9.54682  100.42481    24.4317 5.8039e+00     31.242     1.4508 0.0000e+00
     30.000     8.6920    31.5080    9.54527  100.40860    24.4315 6.5176e+00     30.327     1.4873 0.0000e+00
     29.000     8.6917    31.5085    9.54176  100.37180    24.4320 7.3614e+00     29.228     1.4382 0.0000e+00
     28.000     8.6916    31.5081    9.53628  100.31397    24.4316 8.3945e+00     28.296     1.3685 0.0000e+00
     27.000     8.6922    31.5076    9.53320  100.28253    24.4314 9.5361e+00     27.211     1.4607 0.0000e+00
     26.000     8.6920    31.5058    9.54018  100.35665    24.4298 1.0945e+01     26.217     1.4163 0.0000e+00
     25.000     8.6926    31.5061    9.53887  100.34320    24.4300 1.2602e+01     25.286     1.3981 0.0000e+00
     24.000     8.6932    31.5055    9.54197  100.37489    24.4295 1.4548e+01     24.171     1.4021 0.0000e+00
     23.000     8.6932    31.5063    9.54272  100.38456    24.4300 1.6806e+01     23.275     1.4195 0.0000e+00
     22.000     8.6927    31.5054    9.54818  100.44319    24.4294 1.9575e+01     22.142     1.4269 0.0000e+00
     21.000     8.6937    31.5045    9.55367  100.50307    24.4286 2.2748e+01     21.256     1.4064 0.0000e+00
     20.000     8.6952    31.5038    9.55669  100.54065    24.4279 2.6781e+01     20.148     1.3956 0.0000e+00
     19.000     8.6961    31.5027    9.55555  100.53318    24.4268 3.1398e+01     19.208     1.4012 0.0000e+00
     18.000     8.7001    31.4997    9.55902  100.57530    24.4240 3.7375e+01     18.140     1.4073 0.0000e+00
     17.000     8.7026    31.4963    9.55794  100.56672    24.4209 4.3447e+01     17.165     1.4150 0.0000e+00
     16.000     8.7056    31.4939    9.54326  100.41553    24.4186 5.1418e+01     16.162     1.4137 0.0000e+00
     15.000     8.7076    31.4916    9.54335  100.41599    24.4164 6.1520e+01     15.106     1.4700 0.0000e+00
     14.000     8.7086    31.4911    9.54661  100.46345    24.4158 7.3827e+01     14.177     1.4589 0.0000e+00
     13.000     8.7092    31.4911    9.55511  100.56779    24.4158 8.7668e+01     13.070     1.4868 0.0000e+00
     12.000     8.7173    31.4868    9.56138  100.64835    24.4116 1.0596e+02     12.138     1.5004 0.0000e+00
     11.000     8.7259    31.4780    9.57017  100.75184    24.4033 1.2693e+02     11.098     1.4598 0.0000e+00
     10.000     8.7357    31.4684    9.57055  100.76874    24.3943 1.5742e+02     10.046     1.4433 0.0000e+00
      9.000     8.7409    31.4626    9.56336  100.71391    24.3889 1.8913e+02      9.127     1.4100 0.0000e+00
      8.000     8.7502    31.4558    9.56691  100.76988    24.3824 2.2599e+02      8.034     1.2556 0.0000e+00
      7.000     8.7626    31.4446    9.57497  100.86802    24.3719 2.8722e+02      7.092     1.1834 0.0000e+00
      6.000     8.7721    31.4335    9.58327  100.96761    24.3614 3.4039e+02      6.037     1.1298 0.0000e+00
      5.000     8.7813    31.4280    9.57943  100.96154    24.3560 4.1248e+02      5.036     1.0009 0.0000e+00
      4.000     8.7863    31.4210    9.57928  101.01251    24.3495 5.2686e+02      4.055     0.9585 0.0000e+00
      3.000     8.8045    31.4192    9.57635  101.06440    24.3463 6.3720e+02      2.997     0.9059 0.0000e+00
      2.000     8.8288    31.4134    9.55032  100.87033    24.3380 8.3519e+02      2.039     0.8181 0.0000e+00
      1.000     8.8652    31.4130    9.45217   99.80878    24.3329 1.5017e+03      1.064     0.7501 0.0000e+00
