* Sea-Bird SBE19plus Data File:
* FileName = C:\data\otf\2007\ctd-07066.hex
* Software Version 1.55
* Temperature SN =  5061
* Conductivity SN =  5061
* System UpLoad Time = Aug 15 2007 16:15:27
* ds
* SeacatPlus V 1.6a  SERIAL NO. 5061    15 Aug 2007  15:31:53
* vbatt = 10.9, vlith =  8.7, ioper =  61.6 ma, ipump =  57.5 ma, 
* iext01 =  95.2 ma
* iext23 =  58.1 ma
* 
* status = not logging
* number of scans to average = 1
* samples = 153039, free = 288466, casts = 154
* mode = profile, minimum cond freq = 3000, pump delay = 60 sec
* autorun = no, ignore magnetic switch = no
* battery type = alkaline, battery cutoff =  7.3 volts
* pressure sensor = strain gauge, range = 870.0
* SBE 38 = no, Gas Tension Device = no
* Ext Volt 0 = yes, Ext Volt 1 = yes, Ext Volt 2 = yes, Ext Volt 3 = yes
* echo commands = yes
* output format = raw HEX
* S>
* 
* SeacatPlus V 1.6a  SERIAL NO. 5061    15 Aug 2007  15:32:18
* temperature:  05-oct-06
*     TA0 = 1.254184e-03
*     TA1 = 2.596730e-04
*     TA2 = 5.165612e-07
*     TA3 = 1.318931e-07
*     TOFFSET = 0.000000e+00
* conductivity:  05-oct-06
*     G = -9.978144e-01
*     H = 1.555200e-01
*     I = -4.839108e-04
*     J = 6.121100e-05
*     CF0 = 2.539936e+03
*     CPCOR = -9.570000e-08
*     CTCOR = 3.250000e-06
*     CSLOPE = 1.000000e+00
* pressure S/N = 2362539, range = 870 psia:  24-aug-06
*     PA0 = 2.171091e-01
*     PA1 = 2.647085e-03
*     PA2 = 1.419397e-11
*     PTCA0 = 5.242437e+05
*     PTCA1 = 7.545345e+00
*     PTCA2 = -1.835354e-01
*     PTCB0 = 2.537125e+01
*     PTCB1 = -1.750000e-03
*     PTCB2 = 0.000000e+00
*     PTEMPA0 = -5.753989e+01
*     PTEMPA1 = 5.235813e+01
*     PTEMPA2 = -4.015521e-02
*     POFFSET = 0.000000e+00
* volt 0: offset = -4.682842e-02, slope = 1.249147e+00
* volt 1: offset = -4.695158e-02, slope = 1.248145e+00
* volt 2: offset = -4.685263e-02, slope = 1.248783e+00
* volt 3: offset = -4.690316e-02, slope = 1.249508e+00
*     EXTFREQSF = 1.000002e+00
* dh
* cast  66 13 Jul 2007 12:13:08 samples 47211 to 47539, avg = 4, stop = mag switch
* S> 
# nquan = 10
# nvalues = 168                         
# units = specified
# name 0 = depSM: Depth [salt water, m]
# name 1 = tv290C: Temperature [ITS-90, deg C]
# name 2 = sal00: Salinity [PSU]
# name 3 = sbeox0Mg/L: Oxygen, SBE 43 [mg/l]
# name 4 = sbeox0PS: Oxygen, SBE 43 [% saturation]
# name 5 = sigma-t00: Density [sigma-t, Kg/m^3 ]
# name 6 = par: PAR/Irradiance, Biospherical/Licor
# name 7 = prdM: Pressure, Strain Gauge [db]
# name 8 = flECO-AFL: Fluorescence, Wetlab ECO-AFL/FL [mg/m^3]
# name 9 = flag: flag
# span 0 =      1.000,     86.000       
# span 1 =     8.5436,     9.1553       
# span 2 =    30.7338,    31.1740       
# span 3 =    8.92557,   11.38546       
# span 4 =   94.05259,  101.57665       
# span 5 =    23.7678,    24.1920       
# span 6 = 1.5449e+00, 8.2971e+02       
# span 7 =      1.765,     85.853       
# span 8 =     0.3025,     0.7015       
# span 9 = 0.0000e+00, 0.0000e+00       
# interval = meters: 1                  
# start_time = Jul 13 2007 12:13:08
# bad_flag = -9.990e-29
# sensor 0 = Frequency 0  temperature, 5061, 05-Oct-06
# sensor 1 = Frequency 1  conductivity, 5061, 05-Oct-06, cpcor = -9.5700e-08
# sensor 2 = Pressure Number
# sensor 3 = Extrnl Volt  0  irradiance (PAR), primary, 4751, 08/10/06
# sensor 4 = Extrnl Volt  1  Oxygen, SBE, primary, 1081, 10/24/06
# sensor 5 = Extrnl Volt  2  WET Labs, ECO_AFL
# sensor 6 = Extrnl Volt  3  userpoly 0, 0627, 10/11/06
# datcnv_date = Oct 15 2007 14:49:45, 5.37e
# datcnv_in = I:\bob d\OTF_GEM\2007\ctd-07066.hex I:\Willette\OTF\CTD\5061.con
# datcnv_skipover = 0
# filter_date = Oct 15 2007 15:02:25, 5.37e
# filter_in = I:\Willette\OTF\CTD\2007\CTD Data\ctd-07066.cnv
# filter_low_pass_tc_A = 1.000
# filter_low_pass_tc_B = 0.150
# filter_low_pass_A_vars = prdM
# filter_low_pass_B_vars =
# loopedit_date = Oct 15 2007 15:06:47, 5.37e
# loopedit_in = I:\Willette\OTF\CTD\2007\CTD Data\ctd-07066.cnv
# loopedit_minVelocity = 0.250                                                                                            
# loopedit_surfaceSoak: minDepth = 5.0, maxDepth = 20, useDeckPress = 1                                                   
# loopedit_excl_bad_scans = yes
# alignctd_date = Oct 15 2007 15:14:15, 5.37e
# alignctd_in = I:\Willette\OTF\CTD\2007\CTD Data\ctd-07066.cnv
# alignctd_adv = tv290C 0.500, sbeox0Mg/L 4.000, sbeox0PS 4.000                                                                                                                                                                      
# binavg_date = Oct 15 2007 15:18:44, 5.37e
# binavg_in = I:\Willette\OTF\CTD\2007\CTD Data\ctd-07066.cnv
# binavg_bintype = meters
# binavg_binsize = 1
# binavg_excl_bad_scans = yes
# binavg_skipover = 0
# binavg_surface_bin = no, min = 0.000, max = 0.000, value = 0.000
# file_type = ascii
*END*
      4.000     9.0858    30.7847    8.95040   94.35588    23.8037 2.6017e+02      5.019     0.3247 0.0000e+00
      5.000     9.0830    30.7826    8.96617   94.50113    23.8042 1.7656e+02      5.799     0.3820 0.0000e+00
      6.000     9.0769    30.7762    8.99796   94.83663    23.7995 1.1590e+02      6.683     0.4121 0.0000e+00
      7.000     9.0795    30.7672    9.00949   94.95602    23.7931 7.9206e+01      7.473     0.4287 0.0000e+00
      8.000     9.0694    30.7719    9.01464   95.00822    23.7976 5.3529e+01      8.260     0.4313 0.0000e+00
      9.000     9.0459    30.7694    8.98284   94.66192    23.7951 3.6368e+01      9.217     0.4289 0.0000e+00
     10.000     9.0526    30.7569    9.04429   95.29927    23.7873 2.6180e+01     10.035     0.4182 0.0000e+00
     11.000     9.0331    30.7838    9.15962   96.53184    23.8109 1.8040e+01     11.057     0.4346 0.0000e+00
     12.000     9.0161    30.7748    9.09351   95.84595    23.8053 1.2802e+01     12.119     0.4318 0.0000e+00
     13.000     9.0095    30.7815    8.92557   94.05259    23.8128 9.0461e+00     13.085     0.4317 0.0000e+00
     14.000     9.0088    30.7905    9.11348   95.97362    23.8219 6.6175e+00     14.185     0.4246 0.0000e+00
     15.000     9.0021    30.7845    9.25756   97.47844    23.8173 5.0382e+00     15.182     0.4195 0.0000e+00
     16.000     8.9823    30.7890    9.34382   98.39357    23.8217 3.8260e+00     16.171     0.4226 0.0000e+00
     17.000     8.9747    30.7883    9.40981   99.11266    23.8225 2.9761e+00     17.441     0.4349 0.0000e+00
     18.000     8.9808    30.7924    9.42295   99.21359    23.8283 2.5513e+00     18.214     0.4298 0.0000e+00
     19.000     8.9799    30.7916    9.44506   99.44525    23.8276 2.1961e+00     19.275     0.4403 0.0000e+00
     20.000     8.9770    30.7889    9.46460   99.64693    23.8255 1.9633e+00     20.373     0.4860 0.0000e+00
     21.000     8.9712    30.7884    9.47867   99.84035    23.8252 1.8115e+00     21.512     0.4681 0.0000e+00
     22.000     8.9734    30.7805    9.48301   99.83835    23.8195 1.7256e+00     22.282     0.4462 0.0000e+00
     23.000     8.9779    30.7812    9.48070   99.80698    23.8206 1.6711e+00     22.821     0.4546 0.0000e+00
     24.000     8.9826    30.7843    9.48688   99.86065    23.8230 1.6309e+00     23.438     0.4480 0.0000e+00
     25.000     8.9676    30.7942    9.49818   99.97432    23.8296 1.5963e+00     24.717     0.4230 0.0000e+00
     26.000     8.9414    30.7747    9.51511  100.15859    23.8162 1.5802e+00     26.054     0.4396 0.0000e+00
     27.000     8.9406    30.7904    9.52397  100.25462    23.8326 1.5679e+00     27.214     0.4288 0.0000e+00
     28.000     8.9431    30.7929    9.52658  100.28902    23.8350 1.5603e+00     28.206     0.4400 0.0000e+00
     29.000     8.9341    30.7857    9.53126  100.34324    23.8279 1.5554e+00     29.186     0.4416 0.0000e+00
     30.000     8.9339    30.7945    9.52924  100.31941    23.8367 1.5514e+00     30.140     0.4407 0.0000e+00
     31.000     8.9396    30.7963    9.53550  100.36790    23.8384 1.5497e+00     31.052     0.4044 0.0000e+00
     32.000     8.9360    30.7983    9.54590  100.46366    23.8403 1.5483e+00     32.069     0.4429 0.0000e+00
     33.000     8.9206    30.7861    9.55573  100.57032    23.8287 1.5474e+00     33.203     0.4260 0.0000e+00
     34.000     8.9183    30.7984    9.55665  100.59824    23.8414 1.5467e+00     34.164     0.4246 0.0000e+00
     35.000     8.9218    30.8025    9.56924  100.71988    23.8454 1.5462e+00     35.305     0.4202 0.0000e+00
     36.000     8.9246    30.8005    9.57259  100.74936    23.8435 1.5461e+00     36.348     0.4272 0.0000e+00
     37.000     8.9292    30.7982    9.57496  100.73158    23.8413 1.5462e+00     37.692     0.3990 0.0000e+00
     38.000     8.9299    30.7947    9.57318  100.69638    23.8380 1.5459e+00     38.469     0.4207 0.0000e+00
     39.000     8.9189    30.7931    9.57886  100.72024    23.8364 1.5460e+00     39.637     0.4263 0.0000e+00
     40.000     8.9109    30.7975    9.57899  100.70363    23.8408 1.5458e+00     40.677     0.4199 0.0000e+00
     41.000     8.9125    30.8059    9.58481  100.73217    23.8489 1.5456e+00     41.567     0.4351 0.0000e+00
     42.000     8.9222    30.8077    9.58544  100.72040    23.8507 1.5459e+00     42.548     0.4250 0.0000e+00
     43.000     8.9242    30.8051    9.58828  100.72659    23.8481 1.5459e+00     43.494     0.4488 0.0000e+00
     44.000     8.9160    30.7962    9.59729  100.80599    23.8396 1.5458e+00     44.567     0.4521 0.0000e+00
     45.000     8.9149    30.7994    9.60273  100.81496    23.8428 1.5459e+00     45.463     0.4368 0.0000e+00
     46.000     8.9041    30.8047    9.61099  100.88457    23.8478 1.5458e+00     46.515     0.4351 0.0000e+00
     47.000     8.8849    30.8068    9.61644  100.92968    23.8499 1.5462e+00     47.628     0.4308 0.0000e+00
     48.000     8.8730    30.8259    9.62138  100.95738    23.8680 1.5458e+00     48.761     0.4345 0.0000e+00
     49.000     8.8536    30.8361    9.62486  100.92861    23.8776 1.5457e+00     49.952     0.4198 0.0000e+00
     50.000     8.8482    30.8475    9.62895  100.91321    23.8886 1.5454e+00     50.846     0.4391 0.0000e+00
     51.000     8.8304    30.8635    9.63173  100.88623    23.9038 1.5454e+00     51.978     0.4120 0.0000e+00
     52.000     8.8114    30.8657    9.63756  100.93579    23.9057 1.5461e+00     52.928     0.4414 0.0000e+00
     53.000     8.8149    30.8798    9.63906  100.95301    23.9187 1.5454e+00     53.540     0.4324 0.0000e+00
     54.000     8.8036    30.8955    9.64384  100.99143    23.9334 1.5461e+00     54.433     0.4294 0.0000e+00
     55.000     8.7964    30.8977    9.65132  101.05109    23.9356 1.5462e+00     55.641     0.4283 0.0000e+00
     56.000     8.7859    30.9107    9.65690  101.07091    23.9476 1.5457e+00     56.407     0.4305 0.0000e+00
     57.000     8.7575    30.9203    9.66001  101.10062    23.9565 1.5459e+00     57.581     0.4279 0.0000e+00
     58.000     8.7508    30.9450    9.66234  101.12717    23.9795 1.5459e+00     58.603     0.4461 0.0000e+00
     59.000     8.7457    30.9562    9.66245  101.12143    23.9901 1.5458e+00     59.561     0.4539 0.0000e+00
     60.000     8.7383    30.9627    9.66639  101.15949    23.9961 1.5459e+00     60.581     0.4601 0.0000e+00
     61.000     8.7204    30.9678    9.66682  101.16763    24.0008 1.5457e+00     61.592     0.4572 0.0000e+00
     62.000     8.6853    30.9770    9.67337  101.22678    24.0092 1.5459e+00     62.566     0.4607 0.0000e+00
     63.000     8.6461    30.9984    9.67829  101.28112    24.0290 1.5458e+00     63.631     0.4679 0.0000e+00
     64.000     8.6191    31.0415    9.67915  101.28931    24.0691 1.5458e+00     64.702     0.4668 0.0000e+00
     65.000     8.6135    31.0765    9.68134  101.30750    24.1017 1.5457e+00     65.650     0.4572 0.0000e+00
     66.000     8.6119    31.0900    9.67995  101.28296    24.1146 1.5458e+00     66.651     0.4504 0.0000e+00
     67.000     8.6025    31.0946    9.67993  101.27745    24.1190 1.5458e+00     67.620     0.4576 0.0000e+00
     68.000     8.5836    31.1011    9.68145  101.29049    24.1251 1.5455e+00     68.627     0.4636 0.0000e+00
     69.000     8.5698    31.1140    9.68525  101.32954    24.1367 1.5460e+00     69.661     0.4622 0.0000e+00
     70.000     8.5721    31.1367    9.68266  101.30100    24.1575 1.5459e+00     70.607     0.4520 0.0000e+00
     71.000     8.5717    31.1471    9.68295  101.30037    24.1673 1.5455e+00     71.561     0.4594 0.0000e+00
     72.000     8.5646    31.1409    9.68869  101.35785    24.1618 1.5455e+00     72.566     0.4622 0.0000e+00
     73.000     8.5657    31.1466    9.68838  101.35444    24.1666 1.5457e+00     73.584     0.4726 0.0000e+00
     74.000     8.5679    31.1541    9.68590  101.32837    24.1736 1.5455e+00     74.519     0.4713 0.0000e+00
     75.000     8.5597    31.1496    9.68501  101.31993    24.1697 1.5460e+00     75.455     0.5377 0.0000e+00
     76.000     8.5629    31.1527    9.68521  101.32165    24.1723 1.5458e+00     76.452     0.5961 0.0000e+00
     77.000     8.5611    31.1529    9.68516  101.32147    24.1726 1.5457e+00     77.407     0.5935 0.0000e+00
     78.000     8.5568    31.1546    9.68515  101.32124    24.1741 1.5455e+00     78.334     0.6065 0.0000e+00
     79.000     8.5506    31.1573    9.68821  101.35222    24.1764 1.5454e+00     79.354     0.5789 0.0000e+00
     80.000     8.5489    31.1642    9.68409  101.31106    24.1828 1.5457e+00     80.288     0.5462 0.0000e+00
     81.000     8.5483    31.1688    9.67875  101.25337    24.1871 1.5457e+00     81.293     0.5450 0.0000e+00
     82.000     8.5469    31.1694    9.67661  101.23259    24.1878 1.5458e+00     82.125     0.5261 0.0000e+00
     83.000     8.5439    31.1705    9.67300  101.19354    24.1888 1.5458e+00     83.124     0.5534 0.0000e+00
     84.000     8.5436    31.1730    9.67670  101.23290    24.1911 1.5458e+00     83.830     0.6030 0.0000e+00
     85.000     8.5437    31.1740    9.67799  101.24854    24.1920 1.5457e+00     84.687     0.6868 0.0000e+00
     86.000     8.5443    31.1739    9.68105  101.28602    24.1920 1.5477e+00     85.853     0.7015 0.0000e+00
     85.000     8.5452    31.1735    9.68197  101.31266    24.1916 1.5455e+00     85.226     0.6161 0.0000e+00
     84.000     8.5469    31.1724    9.68611  101.36485    24.1903 1.5458e+00     84.093     0.6150 0.0000e+00
     83.000     8.5483    31.1728    9.68323  101.35099    24.1907 1.5454e+00     83.372     0.6839 0.0000e+00
     82.000     8.5523    31.1709    9.68408  101.37437    24.1890 1.5457e+00     82.505     0.6434 0.0000e+00
     81.000     8.5552    31.1668    9.67600  101.29163    24.1851 1.5458e+00     81.619     0.6054 0.0000e+00
     80.000     8.5604    31.1636    9.67524  101.28510    24.1823 1.5455e+00     80.664     0.5951 0.0000e+00
     79.000     8.5601    31.1584    9.67773  101.31352    24.1774 1.5455e+00     79.735     0.5575 0.0000e+00
     78.000     8.5597    31.1580    9.67648  101.31030    24.1771 1.5456e+00     78.754     0.5762 0.0000e+00
     77.000     8.5633    31.1582    9.67773  101.33678    24.1773 1.5455e+00     77.729     0.5448 0.0000e+00
     76.000     8.5713    31.1556    9.67812  101.35983    24.1750 1.5457e+00     76.737     0.5160 0.0000e+00
     75.000     8.5834    31.1422    9.67745  101.36514    24.1631 1.5454e+00     75.741     0.5229 0.0000e+00
     74.000     8.5859    31.1300    9.67568  101.35943    24.1519 1.5454e+00     74.709     0.5092 0.0000e+00
     73.000     8.5864    31.1262    9.66776  101.30374    24.1484 1.5451e+00     73.724     0.5051 0.0000e+00
     72.000     8.5886    31.1251    9.66498  101.30846    24.1474 1.5457e+00     72.688     0.5040 0.0000e+00
     71.000     8.5923    31.1234    9.67067  101.37294    24.1458 1.5450e+00     71.792     0.5291 0.0000e+00
     70.000     8.6024    31.1167    9.66645  101.35282    24.1400 1.5454e+00     70.636     0.4777 0.0000e+00
     69.000     8.6139    31.1075    9.66133  101.30466    24.1314 1.5455e+00     69.717     0.4922 0.0000e+00
     68.000     8.6221    31.0941    9.66683  101.38699    24.1192 1.5453e+00     68.731     0.5131 0.0000e+00
     67.000     8.6299    31.0860    9.65917  101.34018    24.1115 1.5452e+00     67.699     0.4889 0.0000e+00
     66.000     8.6456    31.0776    9.65295  101.30910    24.1037 1.5456e+00     66.653     0.4957 0.0000e+00
     65.000     8.6667    31.0578    9.65033  101.31919    24.0853 1.5453e+00     65.656     0.5127 0.0000e+00
     64.000     8.6747    31.0431    9.64898  101.32852    24.0716 1.5455e+00     64.644     0.5268 0.0000e+00
     63.000     8.6863    31.0327    9.64470  101.29743    24.0619 1.5455e+00     63.630     0.4969 0.0000e+00
     62.000     8.6936    31.0213    9.63885  101.24915    24.0512 1.5452e+00     62.618     0.5034 0.0000e+00
     61.000     8.7148    31.0108    9.63864  101.27876    24.0415 1.5456e+00     61.570     0.5034 0.0000e+00
     60.000     8.7353    30.9915    9.64007  101.32004    24.0236 1.5450e+00     60.570     0.5025 0.0000e+00
     59.000     8.7573    30.9711    9.64149  101.35351    24.0046 1.5452e+00     59.573     0.5145 0.0000e+00
     58.000     8.7792    30.9471    9.63851  101.34075    23.9823 1.5453e+00     58.507     0.5103 0.0000e+00
     57.000     8.7871    30.9285    9.63448  101.32432    23.9649 1.5454e+00     57.548     0.5215 0.0000e+00
     56.000     8.7941    30.9201    9.62594  101.29355    23.9571 1.5454e+00     56.459     0.5075 0.0000e+00
     55.000     8.8049    30.9144    9.61344  101.18144    23.9517 1.5449e+00     55.527     0.5025 0.0000e+00
     54.000     8.8310    30.9015    9.61872  101.24136    23.9397 1.5457e+00     54.419     0.5246 0.0000e+00
     53.000     8.8386    30.8794    9.61918  101.25048    23.9192 1.5454e+00     53.471     0.4881 0.0000e+00
     52.000     8.8493    30.8706    9.62323  101.30464    23.9107 1.5457e+00     52.439     0.5155 0.0000e+00
     51.000     8.8567    30.8609    9.62418  101.31888    23.9016 1.5453e+00     51.466     0.5198 0.0000e+00
     50.000     8.8832    30.8542    9.61821  101.25910    23.8952 1.5455e+00     50.435     0.4962 0.0000e+00
     49.000     8.9041    30.8308    9.60291  101.09713    23.8731 1.5454e+00     49.430     0.4898 0.0000e+00
     48.000     8.9158    30.8108    9.60811  101.15189    23.8541 1.5454e+00     48.483     0.4948 0.0000e+00
     47.000     8.9178    30.8010    9.60845  101.15613    23.8446 1.5454e+00     47.420     0.5094 0.0000e+00
     46.000     8.9207    30.7995    9.60879  101.16377    23.8431 1.5453e+00     46.407     0.4888 0.0000e+00
     45.000     8.9269    30.7980    9.60716  101.15372    23.8418 1.5455e+00     45.357     0.4757 0.0000e+00
     44.000     8.9292    30.7922    9.60355  101.12289    23.8361 1.5453e+00     44.323     0.5006 0.0000e+00
     43.000     8.9315    30.7901    9.60851  101.19108    23.8340 1.5457e+00     43.292     0.5054 0.0000e+00
     42.000     8.9308    30.7893    9.61467  101.26558    23.8332 1.5454e+00     42.256     0.5136 0.0000e+00
     41.000     8.9308    30.7897    9.61327  101.27016    23.8336 1.5454e+00     41.283     0.5174 0.0000e+00
     40.000     8.9310    30.7898    9.61221  101.26667    23.8337 1.5454e+00     40.269     0.4826 0.0000e+00
     39.000     8.9323    30.7898    9.60878  101.23061    23.8337 1.5454e+00     39.161     0.4880 0.0000e+00
     38.000     8.9338    30.7892    9.61708  101.31928    23.8331 1.5453e+00     38.300     0.5151 0.0000e+00
     37.000     8.9371    30.7884    9.61692  101.31895    23.8322 1.5456e+00     37.252     0.5310 0.0000e+00
     36.000     8.9401    30.7868    9.61279  101.27728    23.8305 1.5459e+00     36.263     0.5060 0.0000e+00
     35.000     8.9463    30.7859    9.61154  101.26888    23.8294 1.5460e+00     35.258     0.5111 0.0000e+00
     34.000     8.9501    30.7824    9.61215  101.28194    23.8256 1.5469e+00     34.250     0.5539 0.0000e+00
     33.000     8.9578    30.7806    9.61271  101.29412    23.8238 1.5476e+00     33.303     0.5255 0.0000e+00
     32.000     8.9656    30.7762    9.60903  101.26642    23.8192 1.5489e+00     32.201     0.5151 0.0000e+00
     31.000     8.9675    30.7751    9.60240  101.20734    23.8174 1.5510e+00     31.322     0.5152 0.0000e+00
     30.000     8.9673    30.7730    9.60049  101.19614    23.8151 1.5533e+00     30.384     0.5275 0.0000e+00
     29.000     8.9682    30.7716    9.60573  101.25849    23.8138 1.5573e+00     29.333     0.5447 0.0000e+00
     28.000     8.9686    30.7715    9.60772  101.27874    23.8138 1.5642e+00     28.382     0.5187 0.0000e+00
     27.000     8.9695    30.7707    9.61089  101.30823    23.8131 1.5740e+00     27.369     0.5118 0.0000e+00
     26.000     8.9721    30.7703    9.61528  101.35175    23.8126 1.5888e+00     26.310     0.5668 0.0000e+00
     25.000     8.9756    30.7693    9.61450  101.34193    23.8115 1.6124e+00     25.230     0.5490 0.0000e+00
     24.000     8.9788    30.7679    9.60666  101.25450    23.8098 1.6449e+00     24.203     0.5488 0.0000e+00
     23.000     8.9849    30.7685    9.60448  101.22762    23.8099 1.6944e+00     23.170     0.5626 0.0000e+00
     22.000     8.9907    30.7672    9.61106  101.30019    23.8080 1.7623e+00     22.131     0.5746 0.0000e+00
     21.000     8.9942    30.7665    9.61190  101.33769    23.8067 1.8674e+00     21.236     0.5555 0.0000e+00
     20.000     8.9959    30.7648    9.61044  101.35591    23.8047 2.0356e+00     20.164     0.5368 0.0000e+00
     19.000     8.9947    30.7637    9.60839  101.36908    23.8033 2.2703e+00     19.157     0.5498 0.0000e+00
     18.000     8.9927    30.7631    9.60910  101.39230    23.8031 2.6335e+00     18.207     0.5662 0.0000e+00
     17.000     8.9922    30.7638    9.60683  101.37734    23.8040 3.1567e+00     17.277     0.5815 0.0000e+00
     16.000     8.9913    30.7647    9.60213  101.32215    23.8048 3.9888e+00     16.278     0.6022 0.0000e+00
     15.000     8.9886    30.7648    9.60321  101.33222    23.8049 5.2913e+00     15.303     0.5850 0.0000e+00
     14.000     8.9870    30.7649    9.60954  101.43232    23.8055 7.0441e+00     14.227     0.5265 0.0000e+00
     13.000     8.9927    30.7666    9.60800  101.43521    23.8071 9.6145e+00     13.226     0.4664 0.0000e+00
     12.000     9.0132    30.7669    9.60805  101.45120    23.8065 1.3262e+01     12.216     0.4672 0.0000e+00
     11.000     9.0328    30.7604    9.60770  101.44421    23.7982 1.8573e+01     11.151     0.4573 0.0000e+00
     10.000     9.0450    30.7526    9.61453  101.52626    23.7892 2.6251e+01     10.073     0.4641 0.0000e+00
      9.000     9.0474    30.7483    9.61169  101.57665    23.7842 3.6678e+01      9.164     0.4629 0.0000e+00
      8.000     9.0437    30.7443    9.54088  100.89057    23.7805 5.3157e+01      8.084     0.4750 0.0000e+00
      7.000     9.0514    30.7467   10.04592   99.83426    23.7829 7.7805e+01      7.079     0.4448 0.0000e+00
      6.000     9.0649    30.7470   10.71523   99.92733    23.7822 1.1139e+02      6.154     0.4859 0.0000e+00
      5.000     9.0753    30.7408   11.24051  100.24199    23.7751 1.6269e+02      5.103     0.4925 0.0000e+00
      4.000     9.0763    30.7358   11.31051  100.42717    23.7697 2.3109e+02      4.202     0.4700 0.0000e+00
      3.000     9.0770    30.7338   11.38546  100.53419    23.7679 3.2045e+02      3.349     0.4187 0.0000e+00
      2.000     9.0898    30.7343 -9.990e-29 -9.990e-29    23.7682 4.5116e+02      2.461     0.3025 0.0000e+00
      1.000     9.1553    30.7361 -9.990e-29 -9.990e-29    23.7678 8.2971e+02      1.765     0.3026 0.0000e+00
