* Sea-Bird SBE19plus Data File:
* FileName = C:\data\otf\2007\ctd-07082.hex
* Software Version 1.55
* Temperature SN =  5061
* Conductivity SN =  5061
* System UpLoad Time = Aug 15 2007 16:22:10
* ds
* SeacatPlus V 1.6a  SERIAL NO. 5061    15 Aug 2007  15:31:53
* vbatt = 10.9, vlith =  8.7, ioper =  61.6 ma, ipump =  57.5 ma, 
* iext01 =  95.2 ma
* iext23 =  58.1 ma
* 
* status = not logging
* number of scans to average = 1
* samples = 153039, free = 288466, casts = 154
* mode = profile, minimum cond freq = 3000, pump delay = 60 sec
* autorun = no, ignore magnetic switch = no
* battery type = alkaline, battery cutoff =  7.3 volts
* pressure sensor = strain gauge, range = 870.0
* SBE 38 = no, Gas Tension Device = no
* Ext Volt 0 = yes, Ext Volt 1 = yes, Ext Volt 2 = yes, Ext Volt 3 = yes
* echo commands = yes
* output format = raw HEX
* S>
* 
* SeacatPlus V 1.6a  SERIAL NO. 5061    15 Aug 2007  15:32:18
* temperature:  05-oct-06
*     TA0 = 1.254184e-03
*     TA1 = 2.596730e-04
*     TA2 = 5.165612e-07
*     TA3 = 1.318931e-07
*     TOFFSET = 0.000000e+00
* conductivity:  05-oct-06
*     G = -9.978144e-01
*     H = 1.555200e-01
*     I = -4.839108e-04
*     J = 6.121100e-05
*     CF0 = 2.539936e+03
*     CPCOR = -9.570000e-08
*     CTCOR = 3.250000e-06
*     CSLOPE = 1.000000e+00
* pressure S/N = 2362539, range = 870 psia:  24-aug-06
*     PA0 = 2.171091e-01
*     PA1 = 2.647085e-03
*     PA2 = 1.419397e-11
*     PTCA0 = 5.242437e+05
*     PTCA1 = 7.545345e+00
*     PTCA2 = -1.835354e-01
*     PTCB0 = 2.537125e+01
*     PTCB1 = -1.750000e-03
*     PTCB2 = 0.000000e+00
*     PTEMPA0 = -5.753989e+01
*     PTEMPA1 = 5.235813e+01
*     PTEMPA2 = -4.015521e-02
*     POFFSET = 0.000000e+00
* volt 0: offset = -4.682842e-02, slope = 1.249147e+00
* volt 1: offset = -4.695158e-02, slope = 1.248145e+00
* volt 2: offset = -4.685263e-02, slope = 1.248783e+00
* volt 3: offset = -4.690316e-02, slope = 1.249508e+00
*     EXTFREQSF = 1.000002e+00
* dh
* cast  82 15 Jul 2007 18:17:11 samples 53831 to 54112, avg = 4, stop = mag switch
* S> 
# nquan = 10
# nvalues = 106                         
# units = specified
# name 0 = depSM: Depth [salt water, m]
# name 1 = tv290C: Temperature [ITS-90, deg C]
# name 2 = sal00: Salinity [PSU]
# name 3 = sbeox0Mg/L: Oxygen, SBE 43 [mg/l]
# name 4 = sbeox0PS: Oxygen, SBE 43 [% saturation]
# name 5 = sigma-t00: Density [sigma-t, Kg/m^3 ]
# name 6 = par: PAR/Irradiance, Biospherical/Licor
# name 7 = prdM: Pressure, Strain Gauge [db]
# name 8 = flECO-AFL: Fluorescence, Wetlab ECO-AFL/FL [mg/m^3]
# name 9 = flag: flag
# span 0 =      1.000,     55.000       
# span 1 =     9.0643,     9.4253       
# span 2 =    30.6665,    30.8987       
# span 3 =    9.22915,    9.67791       
# span 4 =   97.78752,  102.27316       
# span 5 =    23.6701,    23.8975       
# span 6 = 1.5467e+00, 1.5731e+03       
# span 7 =      2.101,     54.389       
# span 8 =     0.4989,     0.8965       
# span 9 = 0.0000e+00, 0.0000e+00       
# interval = meters: 1                  
# start_time = Jul 15 2007 18:17:11
# bad_flag = -9.990e-29
# sensor 0 = Frequency 0  temperature, 5061, 05-Oct-06
# sensor 1 = Frequency 1  conductivity, 5061, 05-Oct-06, cpcor = -9.5700e-08
# sensor 2 = Pressure Number
# sensor 3 = Extrnl Volt  0  irradiance (PAR), primary, 4751, 08/10/06
# sensor 4 = Extrnl Volt  1  Oxygen, SBE, primary, 1081, 10/24/06
# sensor 5 = Extrnl Volt  2  WET Labs, ECO_AFL
# sensor 6 = Extrnl Volt  3  userpoly 0, 0627, 10/11/06
# datcnv_date = Oct 15 2007 14:49:46, 5.37e
# datcnv_in = I:\bob d\OTF_GEM\2007\ctd-07082.hex I:\Willette\OTF\CTD\5061.con
# datcnv_skipover = 0
# filter_date = Oct 15 2007 15:02:26, 5.37e
# filter_in = I:\Willette\OTF\CTD\2007\CTD Data\ctd-07082.cnv
# filter_low_pass_tc_A = 1.000
# filter_low_pass_tc_B = 0.150
# filter_low_pass_A_vars = prdM
# filter_low_pass_B_vars =
# loopedit_date = Oct 15 2007 15:06:48, 5.37e
# loopedit_in = I:\Willette\OTF\CTD\2007\CTD Data\ctd-07082.cnv
# loopedit_minVelocity = 0.250                                                                                            
# loopedit_surfaceSoak: minDepth = 5.0, maxDepth = 20, useDeckPress = 1                                                   
# loopedit_excl_bad_scans = yes
# alignctd_date = Oct 15 2007 15:14:16, 5.37e
# alignctd_in = I:\Willette\OTF\CTD\2007\CTD Data\ctd-07082.cnv
# alignctd_adv = tv290C 0.500, sbeox0Mg/L 4.000, sbeox0PS 4.000                                                                                                                                                                      
# binavg_date = Oct 15 2007 15:18:45, 5.37e
# binavg_in = I:\Willette\OTF\CTD\2007\CTD Data\ctd-07082.cnv
# binavg_bintype = meters
# binavg_binsize = 1
# binavg_excl_bad_scans = yes
# binavg_skipover = 0
# binavg_surface_bin = no, min = 0.000, max = 0.000, value = 0.000
# file_type = ascii
*END*
      4.000     9.3253    30.6955    9.22915   97.81743    23.6935 1.0178e+02      4.816     0.7173 0.0000e+00
      5.000     9.2783    30.7156    9.24054   97.93677    23.7141 8.7784e+01      5.667     0.7293 0.0000e+00
      6.000     9.2748    30.7328    9.24327   97.94930    23.7318 6.9958e+01      6.507     0.7864 0.0000e+00
      7.000     9.2737    30.7547    9.26300   98.11948    23.7528 5.3415e+01      7.408     0.7899 0.0000e+00
      8.000     9.2554    30.7608    9.27540   98.23193    23.7589 3.9013e+01      8.473     0.7669 0.0000e+00
      9.000     9.2480    30.7756    9.26324   98.06165    23.7715 2.9187e+01      9.500     0.7422 0.0000e+00
     10.000     9.2448    30.7946    9.28329   98.21127    23.7885 2.0687e+01     10.590     0.7027 0.0000e+00
     11.000     9.2408    30.8009    9.24642   97.78752    23.7944 1.4441e+01     11.759     0.7175 0.0000e+00
     12.000     9.2344    30.8018    9.26622   97.98043    23.7954 1.0577e+01     12.705     0.7163 0.0000e+00
     13.000     9.2269    30.8104    9.37012   99.07605    23.8026 7.6100e+00     13.652     0.7120 0.0000e+00
     14.000     9.2248    30.8148    9.43538   99.75067    23.8069 5.6534e+00     14.610     0.7181 0.0000e+00
     15.000     9.2230    30.8214    9.47265  100.13452    23.8131 4.3855e+00     15.481     0.7221 0.0000e+00
     16.000     9.2175    30.8234    9.50105  100.42677    23.8151 3.4665e+00     16.401     0.7293 0.0000e+00
     17.000     9.2162    30.8255    9.51950  100.61998    23.8170 2.8471e+00     17.307     0.7339 0.0000e+00
     18.000 -9.990e-29 -9.990e-29 -9.990e-29 -9.990e-29 -9.990e-29 -9.990e-29 -9.990e-29 -9.990e-29 -9.990e-29
     19.000     9.2128    30.8339    9.54247  100.86199    23.8247 2.2330e+00     18.682     0.7338 0.0000e+00
     20.000     9.1973    30.8327    9.55979  101.03921    23.8237 1.8920e+00     20.124     0.7349 0.0000e+00
     21.000     9.1746    30.8336    9.56740  101.11766    23.8251 1.7796e+00     21.061     0.7181 0.0000e+00
     22.000     9.1742    30.8420    9.57099  101.15570    23.8337 1.6974e+00     22.047     0.7086 0.0000e+00
     23.000     9.1678    30.8567    9.57701  101.21006    23.8487 1.6446e+00     23.041     0.7226 0.0000e+00
     24.000     9.1299    30.8598    9.58538  101.29919    23.8514 1.6077e+00     24.049     0.7370 0.0000e+00
     25.000     9.1059    30.8601    9.59108  101.36179    23.8527 1.5857e+00     25.125     0.7677 0.0000e+00
     26.000     9.1045    30.8750    9.59501  101.40317    23.8699 1.5722e+00     26.009     0.7424 0.0000e+00
     27.000     9.0948    30.8987    9.60264  101.48105    23.8925 1.5622e+00     27.176     0.7415 0.0000e+00
     28.000     9.0956    30.8842    9.59819  101.43444    23.8813 1.5575e+00     28.153     0.7512 0.0000e+00
     29.000     9.0861    30.8901    9.60487  101.50496    23.8873 1.5537e+00     29.207     0.7756 0.0000e+00
     30.000     9.0804    30.8880    9.61327  101.59248    23.8859 1.5525e+00     30.271     0.7427 0.0000e+00
     31.000     9.0788    30.8908    9.61900  101.65414    23.8892 1.5513e+00     31.343     0.7429 0.0000e+00
     32.000     9.0780    30.8936    9.61631  101.62534    23.8922 1.5503e+00     32.345     0.7575 0.0000e+00
     33.000     9.0767    30.8941    9.61292  101.58873    23.8929 1.5501e+00     33.354     0.7751 0.0000e+00
     34.000     9.0749    30.8938    9.61559  101.61147    23.8927 1.5500e+00     34.377     0.7796 0.0000e+00
     35.000     9.0743    30.8937    9.62219  101.67801    23.8928 1.5497e+00     35.364     0.7779 0.0000e+00
     36.000     9.0718    30.8946    9.62692  101.72716    23.8938 1.5495e+00     36.295     0.7616 0.0000e+00
     37.000     9.0700    30.8948    9.62907  101.74946    23.8940 1.5494e+00     37.256     0.7713 0.0000e+00
     38.000     9.0705    30.8950    9.62644  101.72173    23.8946 1.5495e+00     38.245     0.7801 0.0000e+00
     39.000     9.0710    30.8967    9.62610  101.71737    23.8962 1.5495e+00     39.170     0.7793 0.0000e+00
     40.000     9.0705    30.8967    9.63194  101.77875    23.8961 1.5492e+00     40.112     0.7783 0.0000e+00
     41.000     9.0700    30.8960    9.63480  101.80925    23.8955 1.5494e+00     41.068     0.7786 0.0000e+00
     42.000     9.0698    30.8958    9.63937  101.85701    23.8953 1.5494e+00     42.043     0.7861 0.0000e+00
     43.000     9.0692    30.8963    9.64428  101.90907    23.8959 1.5489e+00     42.987     0.7759 0.0000e+00
     44.000     9.0694    30.8966    9.64766  101.94559    23.8962 1.5491e+00     43.925     0.7571 0.0000e+00
     45.000     9.0701    30.8964    9.64219  101.88753    23.8961 1.5489e+00     44.897     0.7568 0.0000e+00
     46.000     9.0695    30.8965    9.63556  101.81660    23.8960 1.5492e+00     46.205     0.7602 0.0000e+00
     47.000     9.0660    30.8959    9.63228  101.78229    23.8956 1.5491e+00     47.428     0.7485 0.0000e+00
     48.000     9.0651    30.8960    9.63460  101.80961    23.8962 1.5492e+00     48.534     0.7654 0.0000e+00
     49.000     9.0647    30.8967    9.63612  101.82516    23.8969 1.5488e+00     49.386     0.7731 0.0000e+00
     50.000     9.0649    30.8967    9.63750  101.84088    23.8970 1.5491e+00     50.109     0.7795 0.0000e+00
     51.000     9.0643    30.8973    9.64222  101.89120    23.8975 1.5488e+00     51.035     0.8241 0.0000e+00
     52.000     9.0644    30.8968    9.62863  101.74454    23.8970 1.5487e+00     51.895     0.7796 0.0000e+00
     53.000     9.0645    30.8968    9.63292  101.79177    23.8971 1.5488e+00     52.396     0.8310 0.0000e+00
     54.000     9.0643    30.8972    9.63568  101.82072    23.8974 1.5491e+00     53.239     0.7927 0.0000e+00
     55.000     9.0646    30.8964    9.63722  101.83581    23.8968 1.5471e+00     54.389     0.8836 0.0000e+00
     54.000     9.0653    30.8963    9.64691  101.93795    23.8966 1.5473e+00     53.817     0.8461 0.0000e+00
     53.000     9.0664    30.8965    9.65179  101.99741    23.8966 1.5469e+00     52.595     0.8647 0.0000e+00
     52.000     9.0655    30.8962    9.64371  101.92391    23.8964 1.5469e+00     52.080     0.8468 0.0000e+00
     51.000     9.0650    30.8964    9.64141  101.89876    23.8966 1.5472e+00     51.163     0.8491 0.0000e+00
     50.000     9.0648    30.8961    9.64732  101.95324    23.8965 1.5472e+00     50.366     0.8249 0.0000e+00
     49.000     9.0651    30.8966    9.64922  101.99341    23.8969 1.5468e+00     49.333     0.8965 0.0000e+00
     48.000     9.0646    30.8965    9.65385  102.04779    23.8967 1.5470e+00     48.426     0.8747 0.0000e+00
     47.000     9.0654    30.8969    9.65272  102.04098    23.8972 1.5469e+00     47.432     0.8473 0.0000e+00
     46.000     9.0674    30.8971    9.64896  102.01836    23.8973 1.5468e+00     46.506     0.8397 0.0000e+00
     45.000     9.0747    30.8968    9.64481  101.97897    23.8963 1.5469e+00     45.459     0.8370 0.0000e+00
     44.000     9.0728    30.8943    9.64330  101.95755    23.8938 1.5470e+00     44.426     0.8129 0.0000e+00
     43.000     9.0727    30.8939    9.64621  101.99023    23.8935 1.5472e+00     43.461     0.8311 0.0000e+00
     42.000     9.0800    30.8958    9.65175  102.05613    23.8951 1.5469e+00     42.444     0.8098 0.0000e+00
     41.000     9.0825    30.8924    9.65025  102.04936    23.8912 1.5467e+00     41.419     0.8027 0.0000e+00
     40.000     9.0870    30.8929    9.64763  102.02808    23.8913 1.5472e+00     40.302     0.8459 0.0000e+00
     39.000     9.0948    30.8910    9.64433  101.99552    23.8889 1.5469e+00     39.304     0.8126 0.0000e+00
     38.000     9.0933    30.8893    9.64119  101.95745    23.8867 1.5470e+00     38.388     0.7985 0.0000e+00
     37.000     9.0922    30.8887    9.64015  101.94376    23.8864 1.5470e+00     37.286     0.8124 0.0000e+00
     36.000     9.0941    30.8898    9.63768  101.92496    23.8874 1.5471e+00     36.376     0.8227 0.0000e+00
     35.000     9.0989    30.8895    9.63473  101.91659    23.8869 1.5469e+00     35.267     0.8177 0.0000e+00
     34.000     9.1018    30.8878    9.63962  101.98394    23.8848 1.5471e+00     34.255     0.8574 0.0000e+00
     33.000     9.1051    30.8870    9.64365  102.05392    23.8838 1.5476e+00     33.282     0.7940 0.0000e+00
     32.000     9.1041    30.8859    9.65118  102.14471    23.8824 1.5479e+00     32.231     0.8159 0.0000e+00
     31.000     9.1020    30.8859    9.63931  102.03587    23.8826 1.5490e+00     31.250     0.7959 0.0000e+00
     30.000     9.1013    30.8869    9.62830  101.94294    23.8837 1.5502e+00     30.232     0.7929 0.0000e+00
     29.000     9.1052    30.8866    9.64070  102.10112    23.8835 1.5526e+00     29.269     0.7958 0.0000e+00
     28.000     9.1151    30.8858    9.64109  102.12340    23.8823 1.5567e+00     28.275     0.7889 0.0000e+00
     27.000     9.1229    30.8808    9.63636  102.09045    23.8769 1.5631e+00     27.237     0.7947 0.0000e+00
     26.000     9.1357    30.8778    9.64351  102.18433    23.8735 1.5738e+00     26.225     0.7969 0.0000e+00
     25.000     9.1424    30.8708    9.64003  102.16424    23.8660 1.5907e+00     25.193     0.7817 0.0000e+00
     24.000     9.1495    30.8676    9.63945  102.16934    23.8625 1.6160e+00     24.105     0.7815 0.0000e+00
     23.000     9.1611    30.8637    9.63280  102.10435    23.8582 1.6594e+00     23.122     0.7744 0.0000e+00
     22.000     9.1753    30.8598    9.62484  102.02093    23.8539 1.7212e+00     22.118     0.7763 0.0000e+00
     21.000     9.1835    30.8522    9.63054  102.08173    23.8456 1.8177e+00     21.153     0.7979 0.0000e+00
     20.000     9.1935    30.8467    9.63282  102.10904    23.8399 1.9674e+00     20.104     0.8018 0.0000e+00
     19.000     9.2002    30.8405    9.64816  102.27316    23.8335 2.1788e+00     19.111     0.8336 0.0000e+00
     18.000     9.2108    30.8345    9.63718  102.16024    23.8278 2.5165e+00     18.119     0.7736 0.0000e+00
     17.000     9.2187    30.8267    9.63520  102.14715    23.8203 3.0312e+00     17.137     0.7598 0.0000e+00
     16.000     9.2237    30.8186    9.62532  102.05433    23.8125 3.7349e+00     16.101     0.7797 0.0000e+00
     15.000     9.2271    30.8136    9.62525  102.06668    23.8078 4.8625e+00     15.210     0.7920 0.0000e+00
     14.000     9.2285    30.8093    9.63821  102.21059    23.8039 6.5866e+00     14.169     0.8015 0.0000e+00
     13.000     9.2283    30.8066    9.63118  102.18127    23.8014 8.9506e+00     13.185     0.8033 0.0000e+00
     12.000     9.2304    30.8070    9.61418  102.03536    23.8018 1.2774e+01     12.217     0.7995 0.0000e+00
     11.000     9.2351    30.8035    9.60861  102.05513    23.7988 1.8458e+01     11.136     0.7408 0.0000e+00
     10.000     9.2415    30.7914    9.60498  102.08328    23.7887 2.6982e+01     10.122     0.7887 0.0000e+00
      9.000     9.2482    30.7733    9.51880  101.20821    23.7735 3.9861e+01      9.053     0.7681 0.0000e+00
      8.000     9.2560    30.7637    9.67791  100.13943    23.7652 5.7388e+01      8.072     0.7940 0.0000e+00
      7.000     9.2665    30.7526 -9.990e-29 -9.990e-29    23.7551 8.4964e+01      7.095     0.7776 0.0000e+00
      6.000     9.2696    30.7404 -9.990e-29 -9.990e-29    23.7442 1.2868e+02      6.160     0.8031 0.0000e+00
      5.000     9.2954    30.7359 -9.990e-29 -9.990e-29    23.7400 1.9835e+02      5.172     0.8146 0.0000e+00
      4.000     9.3108    30.7231 -9.990e-29 -9.990e-29    23.7270 3.0063e+02      4.351     0.7713 0.0000e+00
      3.000     9.3539    30.7087 -9.990e-29 -9.990e-29    23.7125 4.8842e+02      3.444     0.7224 0.0000e+00
      2.000     9.3832    30.6843 -9.990e-29 -9.990e-29    23.6880 7.5603e+02      2.725     0.6185 0.0000e+00
      1.000     9.4253    30.6665 -9.990e-29 -9.990e-29    23.6701 1.5731e+03      2.101     0.4989 0.0000e+00
