* Sea-Bird SBE19plus Data File:
* FileName = C:\data\otf\2007\ctd-07023.hex
* Software Version 1.55
* Temperature SN =  5061
* Conductivity SN =  5061
* System UpLoad Time = Aug 15 2007 15:59:19
* ds
* SeacatPlus V 1.6a  SERIAL NO. 5061    15 Aug 2007  15:31:53
* vbatt = 10.9, vlith =  8.7, ioper =  61.6 ma, ipump =  57.5 ma, 
* iext01 =  95.2 ma
* iext23 =  58.1 ma
* 
* status = not logging
* number of scans to average = 1
* samples = 153039, free = 288466, casts = 154
* mode = profile, minimum cond freq = 3000, pump delay = 60 sec
* autorun = no, ignore magnetic switch = no
* battery type = alkaline, battery cutoff =  7.3 volts
* pressure sensor = strain gauge, range = 870.0
* SBE 38 = no, Gas Tension Device = no
* Ext Volt 0 = yes, Ext Volt 1 = yes, Ext Volt 2 = yes, Ext Volt 3 = yes
* echo commands = yes
* output format = raw HEX
* S>
* 
* SeacatPlus V 1.6a  SERIAL NO. 5061    15 Aug 2007  15:32:18
* temperature:  05-oct-06
*     TA0 = 1.254184e-03
*     TA1 = 2.596730e-04
*     TA2 = 5.165612e-07
*     TA3 = 1.318931e-07
*     TOFFSET = 0.000000e+00
* conductivity:  05-oct-06
*     G = -9.978144e-01
*     H = 1.555200e-01
*     I = -4.839108e-04
*     J = 6.121100e-05
*     CF0 = 2.539936e+03
*     CPCOR = -9.570000e-08
*     CTCOR = 3.250000e-06
*     CSLOPE = 1.000000e+00
* pressure S/N = 2362539, range = 870 psia:  24-aug-06
*     PA0 = 2.171091e-01
*     PA1 = 2.647085e-03
*     PA2 = 1.419397e-11
*     PTCA0 = 5.242437e+05
*     PTCA1 = 7.545345e+00
*     PTCA2 = -1.835354e-01
*     PTCB0 = 2.537125e+01
*     PTCB1 = -1.750000e-03
*     PTCB2 = 0.000000e+00
*     PTEMPA0 = -5.753989e+01
*     PTEMPA1 = 5.235813e+01
*     PTEMPA2 = -4.015521e-02
*     POFFSET = 0.000000e+00
* volt 0: offset = -4.682842e-02, slope = 1.249147e+00
* volt 1: offset = -4.695158e-02, slope = 1.248145e+00
* volt 2: offset = -4.685263e-02, slope = 1.248783e+00
* volt 3: offset = -4.690316e-02, slope = 1.249508e+00
*     EXTFREQSF = 1.000002e+00
* dh
* cast  23 06 Jul 2007 07:30:07 samples 31856 to 32177, avg = 4, stop = mag switch
* S> 
# nquan = 10
# nvalues = 167                         
# units = specified
# name 0 = depSM: Depth [salt water, m]
# name 1 = tv290C: Temperature [ITS-90, deg C]
# name 2 = sal00: Salinity [PSU]
# name 3 = sbeox0Mg/L: Oxygen, SBE 43 [mg/l]
# name 4 = sbeox0PS: Oxygen, SBE 43 [% saturation]
# name 5 = sigma-t00: Density [sigma-t, Kg/m^3 ]
# name 6 = par: PAR/Irradiance, Biospherical/Licor
# name 7 = prdM: Pressure, Strain Gauge [db]
# name 8 = flECO-AFL: Fluorescence, Wetlab ECO-AFL/FL [mg/m^3]
# name 9 = flag: flag
# span 0 =      1.000,     85.000       
# span 1 =     8.0293,     8.8154       
# span 2 =    30.4928,    31.3678       
# span 3 =    9.16326,   11.51542       
# span 4 =   95.28902,  110.07516       
# span 5 =    23.6159,    24.4181       
# span 6 = 1.5482e+00, 3.8705e+02       
# span 7 =      1.899,     84.729       
# span 8 =     0.5321,     0.8210       
# span 9 = 0.0000e+00, 0.0000e+00       
# interval = meters: 1                  
# start_time = Jul 06 2007 07:30:07
# bad_flag = -9.990e-29
# sensor 0 = Frequency 0  temperature, 5061, 05-Oct-06
# sensor 1 = Frequency 1  conductivity, 5061, 05-Oct-06, cpcor = -9.5700e-08
# sensor 2 = Pressure Number
# sensor 3 = Extrnl Volt  0  irradiance (PAR), primary, 4751, 08/10/06
# sensor 4 = Extrnl Volt  1  Oxygen, SBE, primary, 1081, 10/24/06
# sensor 5 = Extrnl Volt  2  WET Labs, ECO_AFL
# sensor 6 = Extrnl Volt  3  userpoly 0, 0627, 10/11/06
# datcnv_date = Oct 15 2007 14:49:43, 5.37e
# datcnv_in = I:\bob d\OTF_GEM\2007\ctd-07023.hex I:\Willette\OTF\CTD\5061.con
# datcnv_skipover = 0
# filter_date = Oct 15 2007 15:02:22, 5.37e
# filter_in = I:\Willette\OTF\CTD\2007\CTD Data\ctd-07023.cnv
# filter_low_pass_tc_A = 1.000
# filter_low_pass_tc_B = 0.150
# filter_low_pass_A_vars = prdM
# filter_low_pass_B_vars =
# loopedit_date = Oct 15 2007 15:06:45, 5.37e
# loopedit_in = I:\Willette\OTF\CTD\2007\CTD Data\ctd-07023.cnv
# loopedit_minVelocity = 0.250                                                                                            
# loopedit_surfaceSoak: minDepth = 5.0, maxDepth = 20, useDeckPress = 1                                                   
# loopedit_excl_bad_scans = yes
# alignctd_date = Oct 15 2007 15:14:13, 5.37e
# alignctd_in = I:\Willette\OTF\CTD\2007\CTD Data\ctd-07023.cnv
# alignctd_adv = tv290C 0.500, sbeox0Mg/L 4.000, sbeox0PS 4.000                                                                                                                                                                      
# binavg_date = Oct 15 2007 15:18:42, 5.37e
# binavg_in = I:\Willette\OTF\CTD\2007\CTD Data\ctd-07023.cnv
# binavg_bintype = meters
# binavg_binsize = 1
# binavg_excl_bad_scans = yes
# binavg_skipover = 0
# binavg_surface_bin = no, min = 0.000, max = 0.000, value = 0.000
# file_type = ascii
*END*
      3.000     8.7866    30.4928    9.16816   95.34494    23.6159 1.0005e+02      4.253     0.6273 0.0000e+00
      4.000     8.7065    30.5210    9.16326   95.28902    23.6392 6.7750e+01      5.236     0.6363 0.0000e+00
      5.000     8.6635    30.6771    9.18448   95.50385    23.7728 5.2470e+01      6.021     0.6398 0.0000e+00
      6.000     8.6161    30.7375    9.22447   95.91577    23.8276 3.9023e+01      6.956     0.6363 0.0000e+00
      7.000     8.5783    30.7891    9.25639   96.23765    23.8754 2.9046e+01      7.849     0.6208 0.0000e+00
      8.000     8.5340    30.8231    9.28982   96.57882    23.9073 2.2301e+01      8.704     0.6123 0.0000e+00
      9.000     8.4805    30.8525    9.31662   96.85683    23.9349 1.7390e+01      9.568     0.6110 0.0000e+00
     10.000     8.4328    30.8875    9.32836   96.98034    23.9681 1.3753e+01     10.405     0.6120 0.0000e+00
     11.000     8.3889    30.9343    9.34459   97.14709    24.0119 1.0893e+01     11.267     0.6079 0.0000e+00
     12.000 -9.990e-29 -9.990e-29 -9.990e-29 -9.990e-29 -9.990e-29 -9.990e-29 -9.990e-29 -9.990e-29 -9.990e-29
     13.000     8.3337    31.0111    9.38289   97.53618    24.0834 7.7528e+00     12.655     0.5858 0.0000e+00
     14.000     8.3195    31.0623    9.42003   97.91465    24.1317 5.8646e+00     13.819     0.5942 0.0000e+00
     15.000     8.3139    31.0885    9.53893   99.14401    24.1566 4.9524e+00     14.704     0.6287 0.0000e+00
     16.000     8.2941    31.1028    9.63624  100.15462    24.1689 4.2430e+00     15.638     0.6285 0.0000e+00
     17.000     8.2926    31.1230    9.70706  100.89023    24.1868 3.7080e+00     16.843     0.6144 0.0000e+00
     18.000     8.2898    31.1412    9.76113  101.44818    24.2031 3.2633e+00     18.091     0.6232 0.0000e+00
     19.000     8.2880    31.1298    9.78034  101.64663    24.1939 2.9237e+00     19.252     0.6556 0.0000e+00
     20.000     8.2822    31.1359    9.82345  102.08741    24.1994 2.6485e+00     20.250     0.6023 0.0000e+00
     21.000     8.2765    31.1391    9.84513  102.30954    24.2023 2.4282e+00     21.289     0.6099 0.0000e+00
     22.000     8.2754    31.1455    9.86281  102.49203    24.2083 2.2541e+00     22.220     0.6038 0.0000e+00
     23.000     8.2762    31.1503    9.86684  102.53382    24.2126 2.1133e+00     23.160     0.5757 0.0000e+00
     24.000     8.2737    31.1514    9.87122  102.57645    24.2135 2.0035e+00     24.087     0.5988 0.0000e+00
     25.000     8.2720    31.1520    9.88401  102.69454    24.2137 1.9144e+00     25.055     0.5980 0.0000e+00
     26.000     8.2691    31.1525    9.88805  102.72469    24.2146 1.8460e+00     25.826     0.5854 0.0000e+00
     27.000     8.2646    31.1475    9.90420  102.88807    24.2110 1.7851e+00     26.874     0.6104 0.0000e+00
     28.000     8.2635    31.1522    9.91896  103.01549    24.2155 1.7364e+00     28.185     0.6263 0.0000e+00
     29.000     8.2607    31.1537    9.92263  103.01689    24.2170 1.6997e+00     29.473     0.6180 0.0000e+00
     30.000     8.2587    31.1559    9.94330  103.21036    24.2187 1.6714e+00     30.574     0.5571 0.0000e+00
     31.000     8.2546    31.1605    9.94353  103.17511    24.2228 1.6491e+00     31.536     0.5919 0.0000e+00
     32.000     8.2522    31.1652    9.94271  103.15520    24.2270 1.6304e+00     32.514     0.5824 0.0000e+00
     33.000     8.2512    31.1688    9.94937  103.22100    24.2302 1.6137e+00     33.492     0.5728 0.0000e+00
     34.000     8.2507    31.1720    9.94414  103.16646    24.2331 1.6016e+00     34.525     0.6199 0.0000e+00
     35.000     8.2485    31.1722    9.95380  103.27000    24.2333 1.5916e+00     35.392     0.5869 0.0000e+00
     36.000     8.2397    31.1738    9.95278  103.25363    24.2346 1.5833e+00     36.294     0.5914 0.0000e+00
     37.000     8.2298    31.1788    9.94899  103.20611    24.2390 1.5768e+00     37.513     0.6277 0.0000e+00
     38.000     8.2296    31.1896    9.95866  103.30603    24.2489 1.5721e+00     38.348     0.5809 0.0000e+00
     39.000     8.2232    31.1945    9.97531  103.47489    24.2534 1.5684e+00     39.337     0.5713 0.0000e+00
     40.000     8.2075    31.1980    9.97295  103.44647    24.2568 1.5644e+00     40.392     0.5720 0.0000e+00
     41.000     8.1929    31.2033    9.96216  103.33386    24.2621 1.5621e+00     41.454     0.5744 0.0000e+00
     42.000     8.1878    31.2154    9.96028  103.31708    24.2738 1.5596e+00     42.300     0.5672 0.0000e+00
     43.000     8.1647    31.2275    9.97425  103.46082    24.2855 1.5573e+00     43.421     0.5766 0.0000e+00
     44.000     8.1547    31.2236    9.94921  103.17587    24.2830 1.5564e+00     44.417     0.5321 0.0000e+00
     45.000     8.1582    31.2403    9.95977  103.28445    24.2991 1.5551e+00     45.299     0.5901 0.0000e+00
     46.000     8.1580    31.2458    9.98108  103.50657    24.3042 1.5540e+00     46.366     0.6053 0.0000e+00
     47.000     8.1595    31.2458    9.98283  103.52446    24.3043 1.5538e+00     47.452     0.6228 0.0000e+00
     48.000     8.1573    31.2468    9.98185  103.50967    24.3051 1.5531e+00     48.427     0.5732 0.0000e+00
     49.000     8.1543    31.2462    9.97252  103.40516    24.3045 1.5521e+00     49.366     0.5672 0.0000e+00
     50.000     8.1533    31.2448    9.97165  103.35765    24.3038 1.5518e+00     50.328     0.5732 0.0000e+00
     51.000     8.1507    31.2452    9.98479  103.47765    24.3043 1.5517e+00     51.257     0.5455 0.0000e+00
     52.000     8.1483    31.2473   10.00522  103.67097    24.3063 1.5516e+00     52.215     0.5693 0.0000e+00
     53.000     8.1476    31.2518   10.03836  103.97201    24.3103 1.5510e+00     53.298     0.6190 0.0000e+00
     54.000     8.1484    31.2533    9.98574  103.39872    24.3117 1.5507e+00     54.146     0.5783 0.0000e+00
     55.000     8.1404    31.2547    9.97245  103.25268    24.3127 1.5509e+00     55.290     0.5825 0.0000e+00
     56.000     8.1344    31.2561    9.98929  103.42429    24.3145 1.5510e+00     56.533     0.6063 0.0000e+00
     57.000     8.1357    31.2613    9.99292  103.45731    24.3197 1.5506e+00     57.717     0.5965 0.0000e+00
     58.000     8.1333    31.2608    9.98762  103.40387    24.3192 1.5505e+00     58.980     0.6715 0.0000e+00
     59.000     8.1294    31.2612    9.98904  103.41688    24.3196 1.5505e+00     59.725     0.6108 0.0000e+00
     60.000     8.1075    31.2646    9.99939  103.52529    24.3229 1.5502e+00     60.721     0.5711 0.0000e+00
     61.000     8.0974    31.2781   10.00483  103.58485    24.3354 1.5499e+00     61.619     0.5863 0.0000e+00
     62.000     8.0871    31.2918   10.01168  103.65710    24.3482 1.5499e+00     62.516     0.5789 0.0000e+00
     63.000     8.0627    31.3018   10.00678  103.60576    24.3574 1.5498e+00     63.565     0.6089 0.0000e+00
     64.000     8.0453    31.3187   10.01225  103.65879    24.3731 1.5499e+00     64.488     0.6233 0.0000e+00
     65.000     8.0405    31.3450   10.01658  103.70338    24.3975 1.5500e+00     65.536     0.6324 0.0000e+00
     66.000     8.0394    31.3543   10.03075  103.85039    24.4062 1.5499e+00     66.513     0.6560 0.0000e+00
     67.000     8.0366    31.3550   10.01851  103.71519    24.4069 1.5499e+00     67.589     0.6821 0.0000e+00
     68.000     8.0356    31.3575   10.01997  103.72948    24.4091 1.5499e+00     68.594     0.7069 0.0000e+00
     69.000     8.0366    31.3607   10.02507  103.78215    24.4120 1.5494e+00     69.596     0.6396 0.0000e+00
     70.000     8.0352    31.3590   10.02948  103.82800    24.4105 1.5492e+00     70.650     0.6512 0.0000e+00
     71.000     8.0377    31.3606   10.03168  103.85146    24.4119 1.5492e+00     71.689     0.6248 0.0000e+00
     72.000     8.0391    31.3585   10.02312  103.76319    24.4101 1.5495e+00     72.717     0.6662 0.0000e+00
     73.000     8.0385    31.3558   10.02067  103.73852    24.4076 1.5495e+00     73.806     0.6327 0.0000e+00
     74.000     8.0364    31.3559   10.01452  103.67587    24.4076 1.5494e+00     74.799     0.7043 0.0000e+00
     75.000     8.0353    31.3583   10.02311  103.76387    24.4097 1.5496e+00     75.728     0.6766 0.0000e+00
     76.000     8.0358    31.3612   10.03148  103.85033    24.4124 1.5498e+00     76.687     0.6360 0.0000e+00
     77.000     8.0293    31.3590   10.04575  103.99807    24.4105 1.5495e+00     77.711     0.7327 0.0000e+00
     78.000     8.0301    31.3638   10.02952  103.82923    24.4147 1.5497e+00     78.599     0.6654 0.0000e+00
     79.000     8.0301    31.3670   10.04172  103.95608    24.4176 1.5496e+00     79.574     0.6918 0.0000e+00
     80.000     8.0301    31.3673   10.01472  103.67690    24.4179 1.5494e+00     80.435     0.6963 0.0000e+00
     81.000     8.0302    31.3674   10.01384  103.66963    24.4180 1.5494e+00     81.298     0.6807 0.0000e+00
     82.000     8.0306    31.3676   10.01348  103.66562    24.4181 1.5491e+00     82.085     0.6656 0.0000e+00
     83.000     8.0306    31.3676   10.01907  103.72251    24.4181 1.5491e+00     82.836     0.6492 0.0000e+00
     84.000     8.0310    31.3673   10.01775  103.70748    24.4178 1.5492e+00     83.599     0.7507 0.0000e+00
     85.000     8.0311    31.3677   10.00518  103.58241    24.4181 1.5494e+00     84.729     0.8210 0.0000e+00
     84.000     8.0313    31.3678   10.01202  103.65664    24.4181 1.5490e+00     83.927     0.7505 0.0000e+00
     83.000     8.0305    31.3676   10.01001  103.63678    24.4180 1.5491e+00     83.159     0.7236 0.0000e+00
     82.000     8.0307    31.3676   10.01811  103.72211    24.4180 1.5491e+00     82.330     0.6625 0.0000e+00
     81.000     8.0314    31.3675   10.00704  103.60876    24.4181 1.5495e+00     81.545     0.7847 0.0000e+00
     80.000     8.0312    31.3667   10.00227  103.55921    24.4172 1.5490e+00     80.718     0.6977 0.0000e+00
     79.000     8.0322    31.3664    9.99766  103.51170    24.4171 1.5491e+00     79.803     0.6343 0.0000e+00
     78.000     8.0351    31.3650   10.00733  103.61322    24.4158 1.5489e+00     78.862     0.7599 0.0000e+00
     77.000     8.0374    31.3605   10.00505  103.61001    24.4118 1.5488e+00     77.689     0.6779 0.0000e+00
     76.000     8.0366    31.3589   10.00246  103.58234    24.4103 1.5488e+00     76.632     0.6758 0.0000e+00
     75.000     8.0376    31.3589   10.00541  103.61158    24.4104 1.5489e+00     75.455     0.6916 0.0000e+00
     74.000     8.0385    31.3577   10.00759  103.65778    24.4093 1.5487e+00     74.418     0.6949 0.0000e+00
     73.000     8.0390    31.3567   10.01312  103.74774    24.4084 1.5488e+00     73.381     0.6833 0.0000e+00
     72.000     8.0391    31.3558   10.00885  103.72917    24.4076 1.5487e+00     72.489     0.6709 0.0000e+00
     71.000     8.0391    31.3554   10.01166  103.78683    24.4073 1.5487e+00     71.529     0.6905 0.0000e+00
     70.000     8.0405    31.3554   10.01861  103.87540    24.4073 1.5485e+00     70.638     0.6951 0.0000e+00
     69.000     8.0490    31.3544   10.01312  103.83376    24.4064 1.5488e+00     69.654     0.6802 0.0000e+00
     68.000     8.0539    31.3487   10.01486  103.85855    24.4013 1.5488e+00     68.753     0.6609 0.0000e+00
     67.000     8.0526    31.3407   10.01281  103.83932    24.3938 1.5488e+00     67.877     0.6542 0.0000e+00
     66.000     8.0479    31.3404   10.00040  103.71199    24.3935 1.5491e+00     66.820     0.6893 0.0000e+00
     65.000     8.0562    31.3462   10.01424  103.85843    24.3988 1.5487e+00     65.747     0.7284 0.0000e+00
     64.000     8.0749    31.3405   10.00390  103.75314    24.3938 1.5488e+00     64.844     0.6727 0.0000e+00
     63.000     8.0937    31.3194   10.00263  103.74323    24.3742 1.5485e+00     63.795     0.7079 0.0000e+00
     62.000     8.1138    31.3033   10.00857  103.81367    24.3594 1.5484e+00     62.905     0.5780 0.0000e+00
     61.000     8.1264    31.2816    9.99728  103.70142    24.3391 1.5482e+00     61.859     0.5858 0.0000e+00
     60.000     8.1358    31.2674   10.00335  103.76695    24.3259 1.5485e+00     60.909     0.5976 0.0000e+00
     59.000     8.1390    31.2580   10.00485  103.78682    24.3170 1.5486e+00     59.746     0.6335 0.0000e+00
     58.000     8.1411    31.2556   10.00059  103.74443    24.3147 1.5485e+00     58.366     0.6231 0.0000e+00
     57.000     8.1427    31.2549   10.00438  103.78415    24.3139 1.5486e+00     57.505     0.6277 0.0000e+00
     56.000     8.1462    31.2538    9.99815  103.72254    24.3128 1.5490e+00     56.514     0.5983 0.0000e+00
     55.000     8.1507    31.2513   10.00785  103.82515    24.3103 1.5487e+00     55.475     0.6500 0.0000e+00
     54.000     8.1527    31.2485    9.99993  103.74698    24.3075 1.5490e+00     54.494     0.6446 0.0000e+00
     53.000     8.1547    31.2460   10.00386  103.79236    24.3052 1.5491e+00     53.540     0.6391 0.0000e+00
     52.000     8.1560    31.2435   10.00834  103.84145    24.3030 1.5490e+00     52.470     0.6749 0.0000e+00
     51.000     8.1563    31.2418   10.00999  103.86031    24.3015 1.5494e+00     51.408     0.6482 0.0000e+00
     50.000     8.1577    31.2407   10.02645  104.03641    24.3006 1.5498e+00     50.514     0.5799 0.0000e+00
     49.000     8.1586    31.2390   10.02944  104.08065    24.2991 1.5497e+00     49.439     0.6454 0.0000e+00
     48.000     8.1600    31.2387   10.03961  104.23317    24.2987 1.5504e+00     48.457     0.6230 0.0000e+00
     47.000     8.1623    31.2382   10.04163  104.30727    24.2981 1.5511e+00     47.360     0.6551 0.0000e+00
     46.000     8.1639    31.2376   10.03356  104.24581    24.2974 1.5519e+00     46.435     0.6294 0.0000e+00
     45.000     8.1648    31.2370   10.03483  104.26862    24.2966 1.5527e+00     45.465     0.6173 0.0000e+00
     44.000     8.1658    31.2365   10.03997  104.32873    24.2961 1.5540e+00     44.418     0.6347 0.0000e+00
     43.000     8.1700    31.2363   10.04279  104.36471    24.2958 1.5557e+00     43.378     0.6456 0.0000e+00
     42.000     8.1806    31.2343   10.03721  104.31625    24.2936 1.5574e+00     42.353     0.6963 0.0000e+00
     41.000     8.2055    31.2290   10.03540  104.30363    24.2880 1.5593e+00     41.386     0.6363 0.0000e+00
     40.000     8.2318    31.2106   10.04171  104.38322    24.2697 1.5624e+00     40.331     0.6204 0.0000e+00
     39.000     8.2421    31.1901   10.03093  104.27616    24.2501 1.5662e+00     39.342     0.6074 0.0000e+00
     38.000     8.2464    31.1799   10.03278  104.29827    24.2405 1.5703e+00     38.238     0.6234 0.0000e+00
     37.000     8.2494    31.1770   10.03107  104.28252    24.2378 1.5756e+00     37.289     0.6360 0.0000e+00
     36.000     8.2529    31.1737   10.01434  104.11123    24.2347 1.5823e+00     36.314     0.6758 0.0000e+00
     35.000     8.2584    31.1698   10.01172  104.08655    24.2312 1.5912e+00     35.288     0.6141 0.0000e+00
     34.000     8.2626    31.1635    9.99893  103.95944    24.2254 1.6020e+00     34.223     0.7459 0.0000e+00
     33.000     8.2698    31.1586    9.99919  103.96474    24.2211 1.6156e+00     33.254     0.6471 0.0000e+00
     32.000     8.2741    31.1484    9.98234  103.78990    24.2119 1.6316e+00     32.218     0.6111 0.0000e+00
     31.000     8.2760    31.1445    9.99467  103.91772    24.2083 1.6522e+00     31.296     0.6308 0.0000e+00
     30.000     8.2773    31.1423    9.99317  103.90097    24.2063 1.6787e+00     30.336     0.6142 0.0000e+00
     29.000     8.2797    31.1389    9.98913  103.85693    24.2034 1.7116e+00     29.292     0.6126 0.0000e+00
     28.000     8.2813    31.1356    9.99405  103.90878    24.2005 1.7536e+00     28.299     0.6295 0.0000e+00
     27.000     8.2846    31.1335    9.99504  103.92268    24.1987 1.8024e+00     27.320     0.6569 0.0000e+00
     26.000     8.2890    31.1258   10.00243  104.00006    24.1921 1.8655e+00     26.254     0.6064 0.0000e+00
     25.000     8.2900    31.1191   10.00232  103.99805    24.1863 1.9469e+00     25.272     0.6040 0.0000e+00
     24.000     8.2903    31.1180   10.00699  104.06059    24.1852 2.0501e+00     24.095     0.6783 0.0000e+00
     23.000     8.2909    31.1167   10.00330  104.04394    24.1841 2.1740e+00     23.218     0.6276 0.0000e+00
     22.000     8.2907    31.1139   10.01105  104.16063    24.1818 2.3330e+00     22.207     0.6279 0.0000e+00
     21.000     8.2913    31.1113   10.02914  104.39024    24.1798 2.5297e+00     21.179     0.6444 0.0000e+00
     20.000     8.2947    31.1089   10.02712  104.39049    24.1779 2.7637e+00     20.208     0.6005 0.0000e+00
     19.000     8.2976    31.0996   10.04935  104.68647    24.1702 3.0756e+00     19.170     0.5988 0.0000e+00
     18.000     8.2971    31.0939   10.05225  104.81982    24.1652 3.4767e+00     18.185     0.6161 0.0000e+00
     17.000     8.2990    31.0931   10.06327  105.01035    24.1646 3.9625e+00     17.123     0.6573 0.0000e+00
     16.000     8.3078    31.0916   10.06814  105.12332    24.1632 4.5915e+00     16.193     0.6537 0.0000e+00
     15.000     8.3226    31.0841   10.06842  105.19632    24.1562 5.3670e+00     15.174     0.6834 0.0000e+00
     14.000     8.3432    31.0722   10.06377  105.21829    24.1450 6.3867e+00     14.183     0.5880 0.0000e+00
     13.000     8.3657    31.0544   10.14730  106.12764    24.1279 7.6759e+00     13.203     0.6360 0.0000e+00
     12.000     8.3818    31.0345   10.23448  107.11298    24.1088 9.4169e+00     12.139     0.6394 0.0000e+00
     11.000     8.4364    31.0185   10.29892  107.84449    24.0941 1.1758e+01     11.156     0.6088 0.0000e+00
     10.000     8.4956    30.9574   10.41308  109.11306    24.0375 1.4807e+01     10.037     0.6234 0.0000e+00
      9.000     8.5299    30.9126   10.50213  110.07516    23.9951 1.8952e+01      9.087     0.6210 0.0000e+00
      8.000     8.5727    30.8782   10.40881  109.09213    23.9625 2.4565e+01      8.044     0.6166 0.0000e+00
      7.000     8.6128    30.8424   10.11735  106.01775    23.9286 3.2319e+01      7.060     0.6265 0.0000e+00
      6.000     8.6397    30.8048    9.99342  104.28885    23.8930 4.3050e+01      6.042     0.6579 0.0000e+00
      5.000     8.6702    30.7829   10.42759  103.82123    23.8725 5.7931e+01      5.133     0.6239 0.0000e+00
      4.000     8.7091    30.7510   10.77085  103.95651    23.8430 7.8814e+01      4.226     0.6411 0.0000e+00
      3.000     8.7498    30.7089   11.51542  103.98748    23.8044 1.1113e+02      3.368     0.6505 0.0000e+00
      2.000     8.7905    30.6531 -9.990e-29 -9.990e-29    23.7554 1.5535e+02      2.607     0.6810 0.0000e+00
      1.000     8.8154    30.5770 -9.990e-29 -9.990e-29    23.6892 3.8705e+02      1.899     0.6445 0.0000e+00
