* Sea-Bird SBE19plus Data File:
* FileName = C:\data\otf\2007\ctd-07094.hex
* Software Version 1.55
* Temperature SN =  5061
* Conductivity SN =  5061
* System UpLoad Time = Aug 15 2007 16:25:56
* ds
* SeacatPlus V 1.6a  SERIAL NO. 5061    15 Aug 2007  15:31:53
* vbatt = 10.9, vlith =  8.7, ioper =  61.6 ma, ipump =  57.5 ma, 
* iext01 =  95.2 ma
* iext23 =  58.1 ma
* 
* status = not logging
* number of scans to average = 1
* samples = 153039, free = 288466, casts = 154
* mode = profile, minimum cond freq = 3000, pump delay = 60 sec
* autorun = no, ignore magnetic switch = no
* battery type = alkaline, battery cutoff =  7.3 volts
* pressure sensor = strain gauge, range = 870.0
* SBE 38 = no, Gas Tension Device = no
* Ext Volt 0 = yes, Ext Volt 1 = yes, Ext Volt 2 = yes, Ext Volt 3 = yes
* echo commands = yes
* output format = raw HEX
* S>
* 
* SeacatPlus V 1.6a  SERIAL NO. 5061    15 Aug 2007  15:32:18
* temperature:  05-oct-06
*     TA0 = 1.254184e-03
*     TA1 = 2.596730e-04
*     TA2 = 5.165612e-07
*     TA3 = 1.318931e-07
*     TOFFSET = 0.000000e+00
* conductivity:  05-oct-06
*     G = -9.978144e-01
*     H = 1.555200e-01
*     I = -4.839108e-04
*     J = 6.121100e-05
*     CF0 = 2.539936e+03
*     CPCOR = -9.570000e-08
*     CTCOR = 3.250000e-06
*     CSLOPE = 1.000000e+00
* pressure S/N = 2362539, range = 870 psia:  24-aug-06
*     PA0 = 2.171091e-01
*     PA1 = 2.647085e-03
*     PA2 = 1.419397e-11
*     PTCA0 = 5.242437e+05
*     PTCA1 = 7.545345e+00
*     PTCA2 = -1.835354e-01
*     PTCB0 = 2.537125e+01
*     PTCB1 = -1.750000e-03
*     PTCB2 = 0.000000e+00
*     PTEMPA0 = -5.753989e+01
*     PTEMPA1 = 5.235813e+01
*     PTEMPA2 = -4.015521e-02
*     POFFSET = 0.000000e+00
* volt 0: offset = -4.682842e-02, slope = 1.249147e+00
* volt 1: offset = -4.695158e-02, slope = 1.248145e+00
* volt 2: offset = -4.685263e-02, slope = 1.248783e+00
* volt 3: offset = -4.690316e-02, slope = 1.249508e+00
*     EXTFREQSF = 1.000002e+00
* dh
* cast  94 19 Jul 2007 10:46:40 samples 57151 to 57341, avg = 4, stop = mag switch
* S> 
# nquan = 10
# nvalues = 84                          
# units = specified
# name 0 = depSM: Depth [salt water, m]
# name 1 = tv290C: Temperature [ITS-90, deg C]
# name 2 = sal00: Salinity [PSU]
# name 3 = sbeox0Mg/L: Oxygen, SBE 43 [mg/l]
# name 4 = sbeox0PS: Oxygen, SBE 43 [% saturation]
# name 5 = sigma-t00: Density [sigma-t, Kg/m^3 ]
# name 6 = par: PAR/Irradiance, Biospherical/Licor
# name 7 = prdM: Pressure, Strain Gauge [db]
# name 8 = flECO-AFL: Fluorescence, Wetlab ECO-AFL/FL [mg/m^3]
# name 9 = flag: flag
# span 0 =      1.000,     44.000       
# span 1 =     8.2080,     8.5695       
# span 2 =    31.4655,    31.7577       
# span 3 =    8.92295,   10.86895       
# span 4 =   90.31186,  101.58851       
# span 5 =    24.4200,    24.6950       
# span 6 = 2.1467e+00, 7.5294e+02       
# span 7 =      1.758,     43.380       
# span 8 =     0.8817,     1.5228       
# span 9 = 0.0000e+00, 0.0000e+00       
# interval = meters: 1                  
# start_time = Jul 19 2007 10:46:40
# bad_flag = -9.990e-29
# sensor 0 = Frequency 0  temperature, 5061, 05-Oct-06
# sensor 1 = Frequency 1  conductivity, 5061, 05-Oct-06, cpcor = -9.5700e-08
# sensor 2 = Pressure Number
# sensor 3 = Extrnl Volt  0  irradiance (PAR), primary, 4751, 08/10/06
# sensor 4 = Extrnl Volt  1  Oxygen, SBE, primary, 1081, 10/24/06
# sensor 5 = Extrnl Volt  2  WET Labs, ECO_AFL
# sensor 6 = Extrnl Volt  3  userpoly 0, 0627, 10/11/06
# datcnv_date = Oct 15 2007 14:49:46, 5.37e
# datcnv_in = I:\bob d\OTF_GEM\2007\ctd-07094.hex I:\Willette\OTF\CTD\5061.con
# datcnv_skipover = 0
# filter_date = Oct 15 2007 15:02:27, 5.37e
# filter_in = I:\Willette\OTF\CTD\2007\CTD Data\ctd-07094.cnv
# filter_low_pass_tc_A = 1.000
# filter_low_pass_tc_B = 0.150
# filter_low_pass_A_vars = prdM
# filter_low_pass_B_vars =
# loopedit_date = Oct 15 2007 15:06:49, 5.37e
# loopedit_in = I:\Willette\OTF\CTD\2007\CTD Data\ctd-07094.cnv
# loopedit_minVelocity = 0.250                                                                                            
# loopedit_surfaceSoak: minDepth = 5.0, maxDepth = 20, useDeckPress = 1                                                   
# loopedit_excl_bad_scans = yes
# alignctd_date = Oct 15 2007 15:14:17, 5.37e
# alignctd_in = I:\Willette\OTF\CTD\2007\CTD Data\ctd-07094.cnv
# alignctd_adv = tv290C 0.500, sbeox0Mg/L 4.000, sbeox0PS 4.000                                                                                                                                                                      
# binavg_date = Oct 15 2007 15:18:45, 5.37e
# binavg_in = I:\Willette\OTF\CTD\2007\CTD Data\ctd-07094.cnv
# binavg_bintype = meters
# binavg_binsize = 1
# binavg_excl_bad_scans = yes
# binavg_skipover = 0
# binavg_surface_bin = no, min = 0.000, max = 0.000, value = 0.000
# file_type = ascii
*END*
      4.000     8.5428    31.5014    9.13442   95.48803    24.4413 2.8213e+02      4.964     0.8817 0.0000e+00
      5.000     8.5311    31.5057    9.14589   95.60529    24.4503 2.3547e+02      5.715     0.8960 0.0000e+00
      6.000     8.5154    31.5164    9.13569   95.46916    24.4609 1.9477e+02      6.570     0.9942 0.0000e+00
      7.000     8.4924    31.5122    9.18218   95.89985    24.4595 1.6999e+02      7.592     0.9999 0.0000e+00
      8.000     8.4823    31.5123    9.20753   96.10918    24.4622 1.4552e+02      8.479     1.0732 0.0000e+00
      9.000     8.4728    31.5179    9.23150   96.32363    24.4690 1.2330e+02      9.364     1.0899 0.0000e+00
     10.000     8.4635    31.5232    9.23983   96.38985    24.4749 1.0435e+02     10.290     1.1013 0.0000e+00
     11.000     8.4546    31.5244    9.24446   96.41839    24.4770 8.8410e+01     11.209     1.1147 0.0000e+00
     12.000     8.4472    31.5286    9.25170   96.47744    24.4816 7.4841e+01     12.101     1.1282 0.0000e+00
     13.000     8.4374    31.5357    9.26352   96.58266    24.4885 6.3258e+01     13.060     1.1446 0.0000e+00
     14.000     8.4245    31.5416    9.28464   96.78457    24.4944 5.3777e+01     14.099     1.1481 0.0000e+00
     15.000     8.4093    31.5477    9.27652   96.70385    24.5008 4.5958e+01     15.087     1.0836 0.0000e+00
     16.000     8.4044    31.5555    9.21370   96.06835    24.5086 3.9350e+01     16.033     1.0918 0.0000e+00
     17.000     8.3966    31.5736    9.10150   94.90059    24.5252 3.3504e+01     17.048     1.0618 0.0000e+00
     18.000     8.3945    31.5739    8.93777   93.16640    24.5258 2.8609e+01     18.194     1.0598 0.0000e+00
     19.000     8.3726    31.5805    8.92295   92.99116    24.5322 2.4680e+01     19.253     1.0107 0.0000e+00
     20.000     8.3427    31.5831    9.06975   94.51226    24.5355 2.1431e+01     20.218     1.0167 0.0000e+00
     21.000     8.3093    31.5987    9.21628   96.03426    24.5503 1.8468e+01     21.174     1.0305 0.0000e+00
     22.000     8.2867    31.6268    9.32772   97.19303    24.5767 1.6033e+01     22.137     1.0252 0.0000e+00
     23.000     8.2735    31.6601    9.39703   97.91261    24.6081 1.3993e+01     23.113     1.0232 0.0000e+00
     24.000     8.2595    31.6799    9.44179   98.37826    24.6266 1.2243e+01     24.164     1.0446 0.0000e+00
     25.000     8.2486    31.6918    9.46974   98.66920    24.6377 1.0789e+01     25.141     1.0523 0.0000e+00
     26.000     8.2357    31.7017    9.48893   98.86886    24.6474 9.5482e+00     26.032     1.0649 0.0000e+00
     27.000     8.2253    31.7126    9.50420   99.02781    24.6572 8.4817e+00     26.879     1.1469 0.0000e+00
     28.000     8.2281    31.7259    9.51731   99.16420    24.6695 7.5623e+00     27.702     1.1420 0.0000e+00
     29.000     8.2319    31.7422    9.52709   99.26565    24.6838 6.7293e+00     28.589     1.0594 0.0000e+00
     30.000     8.2293    31.7577    9.54334   99.43499    24.6950 5.9963e+00     30.130     1.0729 0.0000e+00
     31.000     8.2139    31.7356    9.54840   99.49136    24.6780 5.4279e+00     31.483     1.2239 0.0000e+00
     32.000     8.2124    31.7316    9.53202   99.32208    24.6766 4.9316e+00     32.631     1.0728 0.0000e+00
     33.000     8.2108    31.7319    9.53046   99.30298    24.6773 4.5178e+00     33.475     1.0708 0.0000e+00
     34.000     8.2087    31.7335    9.53739   99.37389    24.6790 4.1108e+00     34.564     1.0664 0.0000e+00
     35.000     8.2088    31.7353    9.53844   99.38706    24.6807 3.7961e+00     35.506     1.0989 0.0000e+00
     36.000     8.2084    31.7366    9.54294   99.43750    24.6819 3.4982e+00     36.275     1.0686 0.0000e+00
     37.000     8.2085    31.7362    9.54945   99.50486    24.6815 3.2237e+00     37.293     1.0436 0.0000e+00
     38.000     8.2085    31.7370    9.55962   99.62099    24.6823 3.0147e+00     38.148     1.0364 0.0000e+00
     39.000     8.2081    31.7363    9.56344   99.65121    24.6817 2.8322e+00     38.929     1.0502 0.0000e+00
     40.000     8.2080    31.7366    9.56808   99.69650    24.6819 2.6734e+00     39.763     1.0359 0.0000e+00
     41.000     8.2080    31.7369    9.57147   99.72924    24.6821 2.5568e+00     40.485     1.0294 0.0000e+00
     42.000     8.2081    31.7369    9.57352   99.75089    24.6822 2.4291e+00     41.183     1.0256 0.0000e+00
     43.000     8.2094    31.7366    9.57308   99.74768    24.6820 2.2997e+00     41.938     1.0525 0.0000e+00
     44.000     8.2096    31.7364    9.57963   99.81552    24.6815 2.1467e+00     43.380     1.1067 0.0000e+00
     43.000     8.2092    31.7363    9.59063   99.93252    24.6815 2.2728e+00     42.885     1.0424 0.0000e+00
     42.000     8.2086    31.7362    9.59848  100.01575    24.6815 2.3837e+00     41.864     1.1636 0.0000e+00
     41.000     8.2088    31.7364    9.60016  100.03359    24.6817 2.4993e+00     41.022     1.1513 0.0000e+00
     40.000     8.2095    31.7361    9.59413   99.97314    24.6815 2.6337e+00     40.146     1.1377 0.0000e+00
     39.000     8.2103    31.7349    9.60052  100.04721    24.6804 2.8023e+00     39.208     1.1999 0.0000e+00
     38.000     8.2106    31.7343    9.60100  100.05605    24.6798 2.9947e+00     38.279     1.1992 0.0000e+00
     37.000     8.2114    31.7337    9.59787  100.02331    24.6793 3.2066e+00     37.366     1.2161 0.0000e+00
     36.000     8.2138    31.7327    9.57683   99.80753    24.6784 3.4486e+00     36.326     1.2406 0.0000e+00
     35.000     8.2124    31.7296    9.58352   99.88394    24.6756 3.7413e+00     35.257     1.2520 0.0000e+00
     34.000     8.2125    31.7314    9.59994  100.06261    24.6772 4.0634e+00     34.289     1.2875 0.0000e+00
     33.000     8.2145    31.7310    9.60819  100.16200    24.6769 4.4281e+00     33.292     1.2440 0.0000e+00
     32.000     8.2199    31.7284    9.61378  100.25013    24.6746 4.8430e+00     32.276     1.1649 0.0000e+00
     31.000     8.2220    31.7220    9.62790  100.43364    24.6688 5.3563e+00     31.241     1.1939 0.0000e+00
     30.000     8.2214    31.7202    9.62920  100.45943    24.6671 5.9403e+00     30.208     1.2573 0.0000e+00
     29.000     8.2240    31.7207    9.63985  100.60600    24.6676 6.6009e+00     29.246     1.2274 0.0000e+00
     28.000     8.2280    31.7176    9.64254  100.67749    24.6648 7.3504e+00     28.225     1.1934 0.0000e+00
     27.000     8.2325    31.7134    9.63927  100.67414    24.6610 8.2273e+00     27.280     1.1645 0.0000e+00
     26.000     8.2406    31.7077    9.65215  100.84202    24.6558 9.2766e+00     26.218     1.1916 0.0000e+00
     25.000     8.2583    31.6993    9.65974  100.94133    24.6481 1.0486e+01     25.194     1.2465 0.0000e+00
     24.000     8.2779    31.6797    9.65928  100.94715    24.6302 1.1881e+01     24.197     1.1547 0.0000e+00
     23.000     8.2871    31.6607    9.65697  100.94557    24.6126 1.3460e+01     23.225     1.1410 0.0000e+00
     22.000     8.3049    31.6500    9.66087  101.00840    24.6027 1.5379e+01     22.214     1.1635 0.0000e+00
     21.000     8.3296    31.6320    9.66460  101.07171    24.5859 1.7734e+01     21.140     1.1482 0.0000e+00
     20.000     8.3511    31.6111    9.66269  101.06956    24.5664 2.0405e+01     20.117     1.1203 0.0000e+00
     19.000     8.3674    31.5896    9.66541  101.11268    24.5459 2.3360e+01     19.127     1.1962 0.0000e+00
     18.000     8.3813    31.5770    9.65535  101.02172    24.5340 2.7025e+01     18.177     1.0903 0.0000e+00
     17.000     8.3889    31.5626    9.66061  101.09029    24.5204 3.1608e+01     17.092     1.1016 0.0000e+00
     16.000     8.3989    31.5563    9.66744  101.18387    24.5144 3.7012e+01     16.017     1.0901 0.0000e+00
     15.000     8.4102    31.5510    9.66573  101.18992    24.5093 4.2907e+01     15.115     1.0916 0.0000e+00
     14.000     8.4219    31.5384    9.67064  101.27069    24.4973 5.0071e+01     14.087     1.1405 0.0000e+00
     13.000     8.4333    31.5296    9.68271  101.42115    24.4889 5.9228e+01     13.121     1.1520 0.0000e+00
     12.000     8.4419    31.5198    9.68687  101.48232    24.4794 7.0399e+01     12.086     1.2376 0.0000e+00
     11.000     8.4499    31.5122    9.69039  101.53673    24.4720 8.3042e+01     10.990     1.2654 0.0000e+00
     10.000     8.4569    31.5076    9.68747  101.54743    24.4675 9.7729e+01     10.130     1.3198 0.0000e+00
      9.000     8.4622    31.5021    9.68639  101.58851    24.4621 1.1482e+02      9.161     1.5228 0.0000e+00
      8.000     8.4724    31.4974    9.62012  100.86877    24.4573 1.3728e+02      8.136     1.1999 0.0000e+00
      7.000     8.4835    31.4923   10.44570   99.45114    24.4521 1.6315e+02      7.155     1.2700 0.0000e+00
      6.000     8.4985    31.4871   10.86895   96.41884    24.4464 1.9390e+02      6.185     1.1490 0.0000e+00
      5.000     8.5116    31.4797   10.72245   94.21101    24.4384 2.3043e+02      5.207     1.0786 0.0000e+00
      4.000     8.5224    31.4746   10.60452   92.67859    24.4326 2.7418e+02      4.269     1.0436 0.0000e+00
      3.000     8.5286    31.4682   10.51486   91.65532    24.4257 3.3530e+02      3.370     1.0995 0.0000e+00
      2.000     8.5482    31.4664   10.43023   90.91434    24.4233 4.1540e+02      2.517     1.0165 0.0000e+00
      1.000     8.5695    31.4655   10.39752   90.31186    24.4200 7.5294e+02      1.758     0.9167 0.0000e+00
