* Sea-Bird SBE19plus Data File:
* FileName = C:\data\otf\2007\ctd-07127.hex
* Software Version 1.55
* Temperature SN =  5061
* Conductivity SN =  5061
* System UpLoad Time = Aug 15 2007 17:22:21
* ds
* SeacatPlus V 1.6a  SERIAL NO. 5061    15 Aug 2007  15:31:53
* vbatt = 10.9, vlith =  8.7, ioper =  61.6 ma, ipump =  57.5 ma, 
* iext01 =  95.2 ma
* iext23 =  58.1 ma
* 
* status = not logging
* number of scans to average = 1
* samples = 153039, free = 288466, casts = 154
* mode = profile, minimum cond freq = 3000, pump delay = 60 sec
* autorun = no, ignore magnetic switch = no
* battery type = alkaline, battery cutoff =  7.3 volts
* pressure sensor = strain gauge, range = 870.0
* SBE 38 = no, Gas Tension Device = no
* Ext Volt 0 = yes, Ext Volt 1 = yes, Ext Volt 2 = yes, Ext Volt 3 = yes
* echo commands = yes
* output format = raw HEX
* S>
* 
* SeacatPlus V 1.6a  SERIAL NO. 5061    15 Aug 2007  15:32:18
* temperature:  05-oct-06
*     TA0 = 1.254184e-03
*     TA1 = 2.596730e-04
*     TA2 = 5.165612e-07
*     TA3 = 1.318931e-07
*     TOFFSET = 0.000000e+00
* conductivity:  05-oct-06
*     G = -9.978144e-01
*     H = 1.555200e-01
*     I = -4.839108e-04
*     J = 6.121100e-05
*     CF0 = 2.539936e+03
*     CPCOR = -9.570000e-08
*     CTCOR = 3.250000e-06
*     CSLOPE = 1.000000e+00
* pressure S/N = 2362539, range = 870 psia:  24-aug-06
*     PA0 = 2.171091e-01
*     PA1 = 2.647085e-03
*     PA2 = 1.419397e-11
*     PTCA0 = 5.242437e+05
*     PTCA1 = 7.545345e+00
*     PTCA2 = -1.835354e-01
*     PTCB0 = 2.537125e+01
*     PTCB1 = -1.750000e-03
*     PTCB2 = 0.000000e+00
*     PTEMPA0 = -5.753989e+01
*     PTEMPA1 = 5.235813e+01
*     PTEMPA2 = -4.015521e-02
*     POFFSET = 0.000000e+00
* volt 0: offset = -4.682842e-02, slope = 1.249147e+00
* volt 1: offset = -4.695158e-02, slope = 1.248145e+00
* volt 2: offset = -4.685263e-02, slope = 1.248783e+00
* volt 3: offset = -4.690316e-02, slope = 1.249508e+00
*     EXTFREQSF = 1.000002e+00
* dh
* cast 127 23 Jul 2007 23:49:15 samples 124759 to 125635, avg = 1, stop = mag switch
* S> 
# nquan = 10
# nvalues = 129                         
# units = specified
# name 0 = depSM: Depth [salt water, m]
# name 1 = tv290C: Temperature [ITS-90, deg C]
# name 2 = sal00: Salinity [PSU]
# name 3 = sbeox0Mg/L: Oxygen, SBE 43 [mg/l]
# name 4 = sbeox0PS: Oxygen, SBE 43 [% saturation]
# name 5 = sigma-t00: Density [sigma-t, Kg/m^3 ]
# name 6 = par: PAR/Irradiance, Biospherical/Licor
# name 7 = prdM: Pressure, Strain Gauge [db]
# name 8 = flECO-AFL: Fluorescence, Wetlab ECO-AFL/FL [mg/m^3]
# name 9 = flag: flag
# span 0 =      1.000,     67.000       
# span 1 =     8.5186,     8.8092       
# span 2 =    31.5409,    31.6759       
# span 3 =    8.56128,    9.45720       
# span 4 =   89.89738,   99.76451       
# span 5 =    24.4418,    24.5831       
# span 6 = 1.5383e+00, 1.6040e+00       
# span 7 =      1.095,     67.483       
# span 8 =     1.0589,     2.0119       
# span 9 = 0.0000e+00, 0.0000e+00       
# interval = meters: 1                  
# start_time = Jul 23 2007 23:49:15
# bad_flag = -9.990e-29
# sensor 0 = Frequency 0  temperature, 5061, 05-Oct-06
# sensor 1 = Frequency 1  conductivity, 5061, 05-Oct-06, cpcor = -9.5700e-08
# sensor 2 = Pressure Number
# sensor 3 = Extrnl Volt  0  irradiance (PAR), primary, 4751, 08/10/06
# sensor 4 = Extrnl Volt  1  Oxygen, SBE, primary, 1081, 10/24/06
# sensor 5 = Extrnl Volt  2  WET Labs, ECO_AFL
# sensor 6 = Extrnl Volt  3  userpoly 0, 0627, 10/11/06
# datcnv_date = Oct 15 2007 14:49:52, 5.37e
# datcnv_in = I:\bob d\OTF_GEM\2007\ctd-07127.hex I:\Willette\OTF\CTD\5061.con
# datcnv_skipover = 0
# filter_date = Oct 15 2007 15:02:39, 5.37e
# filter_in = I:\Willette\OTF\CTD\2007\CTD Data\ctd-07127.cnv
# filter_low_pass_tc_A = 1.000
# filter_low_pass_tc_B = 0.150
# filter_low_pass_A_vars = prdM
# filter_low_pass_B_vars =
# loopedit_date = Oct 15 2007 15:06:58, 5.37e
# loopedit_in = I:\Willette\OTF\CTD\2007\CTD Data\ctd-07127.cnv
# loopedit_minVelocity = 0.250                                                                                            
# loopedit_surfaceSoak: minDepth = 5.0, maxDepth = 20, useDeckPress = 1                                                   
# loopedit_excl_bad_scans = yes
# alignctd_date = Oct 15 2007 15:14:23, 5.37e
# alignctd_in = I:\Willette\OTF\CTD\2007\CTD Data\ctd-07127.cnv
# alignctd_adv = tv290C 0.500, sbeox0Mg/L 4.000, sbeox0PS 4.000                                                                                                                                                                      
# binavg_date = Oct 15 2007 15:18:52, 5.37e
# binavg_in = I:\Willette\OTF\CTD\2007\CTD Data\ctd-07127.cnv
# binavg_bintype = meters
# binavg_binsize = 1
# binavg_excl_bad_scans = yes
# binavg_skipover = 0
# binavg_surface_bin = no, min = 0.000, max = 0.000, value = 0.000
# file_type = ascii
*END*
      5.000     8.7467    31.5758    8.56128   89.89738    24.4696 1.5793e+00      5.145     1.7825 0.0000e+00
      6.000     8.6632    31.6227    8.69612   91.29747    24.5219 1.5770e+00      6.189     1.4696 0.0000e+00
      7.000     8.6044    31.6380    8.70930   91.41356    24.5428 1.5742e+00      7.168     1.3134 0.0000e+00
      8.000     8.5688    31.6548    8.80286   92.37723    24.5622 1.5709e+00      8.100     1.1988 0.0000e+00
      9.000     8.5594    31.6759    8.88441   93.22582    24.5825 1.5689e+00      9.111     1.1098 0.0000e+00
     10.000     8.5564    31.6736    8.93879   93.79959    24.5812 1.5668e+00     10.280     1.1465 0.0000e+00
     11.000     8.5465    31.6636    8.95327   93.95680    24.5741 1.5653e+00     11.169     1.1403 0.0000e+00
     12.000     8.5397    31.6677    8.96612   94.09347    24.5786 1.5636e+00     12.089     1.1147 0.0000e+00
     13.000     8.5366    31.6722    8.98661   94.31561    24.5831 1.5621e+00     13.128     1.0589 0.0000e+00
     14.000     8.5369    31.6693    8.97305   94.17554    24.5810 1.5611e+00     14.086     1.1057 0.0000e+00
     15.000     8.5398    31.6719    8.94678   93.90186    24.5829 1.5601e+00     15.076     1.0781 0.0000e+00
     16.000     8.5417    31.6687    8.98351   94.29023    24.5798 1.5590e+00     16.046     1.0616 0.0000e+00
     17.000     8.5437    31.6717    9.02104   94.68688    24.5821 1.5581e+00     17.097     1.0944 0.0000e+00
     18.000     8.5478    31.6687    8.99420   94.39882    24.5790 1.5573e+00     18.367     1.1456 0.0000e+00
     19.000     8.5488    31.6652    9.00347   94.49150    24.5761 1.5566e+00     19.209     1.1318 0.0000e+00
     20.000     8.5494    31.6659    9.02866   94.76174    24.5765 1.5559e+00     20.077     1.1045 0.0000e+00
     21.000     8.5511    31.6662    9.06701   95.17092    24.5765 1.5558e+00     21.193     1.1310 0.0000e+00
     22.000     8.5484    31.6625    9.06301   95.11890    24.5736 1.5554e+00     22.261     1.1537 0.0000e+00
     23.000     8.5464    31.6626    9.03337   94.79063    24.5742 1.5547e+00     23.269     1.1790 0.0000e+00
     24.000     8.5495    31.6654    9.01085   94.54279    24.5764 1.5543e+00     24.166     1.1289 0.0000e+00
     25.000     8.5518    31.6652    9.03629   94.79905    24.5757 1.5539e+00     25.125     1.1629 0.0000e+00
     26.000     8.5462    31.6624    9.07266   95.17833    24.5737 1.5537e+00     26.224     1.1501 0.0000e+00
     27.000     8.5383    31.6611    9.04153   94.84955    24.5740 1.5540e+00     27.383     1.1263 0.0000e+00
     28.000     8.5324    31.6571    9.02175   94.63473    24.5716 1.5542e+00     28.300     1.1334 0.0000e+00
     29.000     8.5285    31.6590    9.05179   94.94866    24.5739 1.5534e+00     29.144     1.1468 0.0000e+00
     30.000     8.5286    31.6628    9.10459   95.49196    24.5772 1.5533e+00     30.251     1.1583 0.0000e+00
     31.000     8.5275    31.6596    9.12147   95.66775    24.5746 1.5525e+00     31.416     1.1532 0.0000e+00
     32.000     8.5242    31.6576    9.09122   95.36347    24.5735 1.5525e+00     32.411     1.1564 0.0000e+00
     33.000     8.5253    31.6610    9.09995   95.47302    24.5764 1.5527e+00     33.319     1.1676 0.0000e+00
     34.000     8.5190    31.6550    9.12242   95.73763    24.5718 1.5522e+00     34.225     1.1204 0.0000e+00
     35.000     8.5186    31.6608    9.14160   95.94482    24.5772 1.5523e+00     35.333     1.1231 0.0000e+00
     36.000     8.5239    31.6610    9.16344   96.20534    24.5769 1.5521e+00     36.396     1.1411 0.0000e+00
     37.000     8.5337    31.6623    9.13109   95.86956    24.5769 1.5520e+00     37.359     1.1494 0.0000e+00
     38.000     8.5471    31.6659    9.04624   94.97109    24.5776 1.5521e+00     38.415     1.1600 0.0000e+00
     39.000     8.5457    31.6549    9.04375   94.94123    24.5682 1.5519e+00     39.307     1.1750 0.0000e+00
     40.000     8.5596    31.6684    9.08653   95.39051    24.5783 1.5519e+00     40.202     1.1894 0.0000e+00
     41.000     8.5662    31.6604    9.08225   95.35438    24.5695 1.5517e+00     41.470     1.2034 0.0000e+00
     42.000     8.5615    31.6572    9.13901   95.96745    24.5677 1.5522e+00     42.484     1.1940 0.0000e+00
     43.000     8.5598    31.6584    9.19508   96.55123    24.5688 1.5518e+00     43.308     1.1447 0.0000e+00
     44.000     8.5602    31.6594    9.25169   97.12747    24.5698 1.5517e+00     44.333     1.1392 0.0000e+00
     45.000     8.5682    31.6640    9.29386   97.57004    24.5729 1.5515e+00     45.476     1.2417 0.0000e+00
     46.000     8.5722    31.6590    9.31809   97.83398    24.5678 1.5515e+00     46.478     1.2155 0.0000e+00
     47.000     8.5662    31.6534    9.33055   97.98063    24.5634 1.5512e+00     47.318     1.1499 0.0000e+00
     48.000     8.5605    31.6568    9.33365   98.02528    24.5676 1.5512e+00     48.464     1.1676 0.0000e+00
     49.000     8.5631    31.6584    9.33834   98.07147    24.5687 1.5508e+00     49.528     1.2215 0.0000e+00
     50.000     8.5711    31.6635    9.34535   98.15216    24.5720 1.5502e+00     50.418     1.1781 0.0000e+00
     51.000     8.5781    31.6617    9.35234   98.23235    24.5691 1.5504e+00     51.559     1.1946 0.0000e+00
     52.000     8.5773    31.6574    9.36175   98.33025    24.5655 1.5453e+00     52.561     1.2172 0.0000e+00
     53.000     8.5775    31.6594    9.35857   98.29677    24.5673 1.5383e+00     53.444     1.1794 0.0000e+00
     54.000     8.5817    31.6617    9.36165   98.33313    24.5686 1.5493e+00     54.471     1.1688 0.0000e+00
     55.000     8.5831    31.6603    9.36503   98.37414    24.5671 1.5505e+00     55.518     1.1985 0.0000e+00
     56.000     8.5824    31.6591    9.36947   98.42547    24.5662 1.5511e+00     56.601     1.2239 0.0000e+00
     57.000     8.5833    31.6608    9.37381   98.47343    24.5676 1.5510e+00     57.500     1.2239 0.0000e+00
     58.000     8.5854    31.6618    9.37750   98.50950    24.5680 1.5509e+00     58.452     1.2122 0.0000e+00
     59.000     8.5879    31.6619    9.38312   98.56873    24.5677 1.5507e+00     59.720     1.2819 0.0000e+00
     60.000     8.5898    31.6625    9.38782   98.61932    24.5679 1.5507e+00     60.565     1.2778 0.0000e+00
     61.000     8.5880    31.6607    9.39190   98.66289    24.5666 1.5503e+00     61.554     1.2381 0.0000e+00
     62.000     8.5884    31.6615    9.39574   98.70202    24.5672 1.5510e+00     62.681     1.2685 0.0000e+00
     63.000     8.5884    31.6616    9.39870   98.73517    24.5673 1.5506e+00     63.547     1.2207 0.0000e+00
     64.000     8.5892    31.6623    9.39692   98.71750    24.5677 1.5508e+00     64.679     1.2715 0.0000e+00
     65.000     8.5882    31.6608    9.39428   98.69048    24.5666 1.5510e+00     65.608     1.3140 0.0000e+00
     66.000     8.5887    31.6621    9.38970   98.64231    24.5677 1.5506e+00     66.378     1.2676 0.0000e+00
     67.000     8.5900    31.6628    9.38085   98.54858    24.5680 1.5523e+00     67.483     1.2971 0.0000e+00
     66.000     8.5899    31.6620    9.38354   98.57700    24.5673 1.5511e+00     66.577     1.2966 0.0000e+00
     65.000     8.5898    31.6622    9.38227   98.56451    24.5676 1.5506e+00     65.618     1.2497 0.0000e+00
     64.000     8.5900    31.6619    9.38548   98.59303    24.5673 1.5501e+00     64.557     1.3062 0.0000e+00
     63.000     8.5901    31.6615    9.38194   98.55773    24.5669 1.5500e+00     63.665     1.3233 0.0000e+00
     62.000     8.5884    31.6608    9.38563   98.59726    24.5666 1.5501e+00     62.571     1.3018 0.0000e+00
     61.000     8.5890    31.6616    9.38682   98.60812    24.5673 1.5499e+00     61.646     1.3477 0.0000e+00
     60.000     8.5893    31.6616    9.39089   98.64645    24.5671 1.5499e+00     60.419     1.4178 0.0000e+00
     59.000     8.5890    31.6614    9.38659   98.60147    24.5670 1.5500e+00     59.702     1.2887 0.0000e+00
     58.000     8.5868    31.6603    9.38840   98.61639    24.5665 1.5498e+00     58.465     1.3108 0.0000e+00
     57.000     8.5870    31.6603    9.38770   98.60910    24.5665 1.5490e+00     57.632     1.2961 0.0000e+00
     56.000     8.5854    31.6601    9.38767   98.60346    24.5665 1.5498e+00     56.511     1.3289 0.0000e+00
     55.000     8.5853    31.6600    9.39582   98.67669    24.5665 1.5495e+00     55.526     1.3378 0.0000e+00
     54.000     8.5834    31.6595    9.39785   98.70107    24.5662 1.5500e+00     54.449     1.4087 0.0000e+00
     53.000     8.5794    31.6577    9.39571   98.68091    24.5652 1.5516e+00     53.555     1.2869 0.0000e+00
     52.000     8.5765    31.6607    9.39367   98.65493    24.5685 1.5511e+00     52.431     1.2912 0.0000e+00
     51.000     8.5801    31.6601    9.39906   98.70350    24.5675 1.5506e+00     51.557     1.2606 0.0000e+00
     50.000     8.5785    31.6587    9.40662   98.77662    24.5664 1.5500e+00     50.382     1.2648 0.0000e+00
     49.000     8.5754    31.6582    9.40650   98.76672    24.5664 1.5510e+00     49.561     1.2681 0.0000e+00
     48.000     8.5715    31.6587    9.40983   98.79356    24.5675 1.5440e+00     48.356     1.2783 0.0000e+00
     47.000     8.5681    31.6571    9.41103   98.80867    24.5666 1.5490e+00     47.481     1.2330 0.0000e+00
     46.000     8.5648    31.6578    9.41260   98.82942    24.5678 1.5495e+00     46.326     1.2315 0.0000e+00
     45.000     8.5653    31.6583    9.41545   98.86358    24.5682 1.5494e+00     45.468     1.2655 0.0000e+00
     44.000     8.5672    31.6583    9.41465   98.85578    24.5679 1.5492e+00     44.291     1.3054 0.0000e+00
     43.000     8.5691    31.6591    9.41537   98.86603    24.5684 1.5493e+00     43.495     1.2023 0.0000e+00
     42.000     8.5695    31.6589    9.41892   98.90070    24.5679 1.5492e+00     42.292     1.3071 0.0000e+00
     41.000     8.5710    31.6597    9.41312   98.83042    24.5685 1.5493e+00     41.394     1.2803 0.0000e+00
     40.000     8.5699    31.6586    9.41071   98.77274    24.5677 1.5493e+00     40.420     1.2294 0.0000e+00
     39.000     8.5677    31.6574    9.41939   98.85490    24.5667 1.5495e+00     39.198     1.3818 0.0000e+00
     38.000     8.5559    31.6525    9.41821   98.84059    24.5643 1.5479e+00     38.458     1.2349 0.0000e+00
     37.000     8.5473    31.6566    9.42108   98.86207    24.5695 1.5512e+00     37.254     1.2361 0.0000e+00
     36.000     8.5475    31.6562    9.42698   98.92423    24.5691 1.5510e+00     36.306     1.1735 0.0000e+00
     35.000     8.5449    31.6551    9.42559   98.91240    24.5685 1.5507e+00     35.517     1.2024 0.0000e+00
     34.000     8.5427    31.6569    9.43669   99.03377    24.5706 1.5505e+00     34.193     1.1869 0.0000e+00
     33.000     8.5445    31.6569    9.43417   99.01181    24.5702 1.5458e+00     33.416     1.1713 0.0000e+00
     32.000     8.5458    31.6564    9.43603   99.04155    24.5696 1.5507e+00     32.244     1.2062 0.0000e+00
     31.000     8.5480    31.6577    9.42978   98.96793    24.5704 1.5512e+00     31.243     1.2812 0.0000e+00
     30.000     8.5522    31.6580    9.42174   98.86359    24.5700 1.5507e+00     30.320     1.1839 0.0000e+00
     29.000     8.5503    31.6552    9.43192   98.95780    24.5677 1.5505e+00     29.261     1.1958 0.0000e+00
     28.000     8.5426    31.6512    9.43495   98.98499    24.5655 1.5431e+00     28.243     1.3328 0.0000e+00
     27.000     8.5366    31.6520    9.44111   99.03511    24.5673 1.5503e+00     27.272     1.2698 0.0000e+00
     26.000     8.5346    31.6517    9.44812   99.10108    24.5674 1.5504e+00     26.165     1.1856 0.0000e+00
     25.000     8.5306    31.6498    9.45221   99.15916    24.5664 1.5507e+00     25.341     1.1719 0.0000e+00
     24.000     8.5243    31.6494    9.45579   99.21439    24.5671 1.5522e+00     24.105     1.2060 0.0000e+00
     23.000     8.5288    31.6535    9.45363   99.19287    24.5703 1.5525e+00     23.157     1.1309 0.0000e+00
     22.000     8.5360    31.6528    9.44695   99.12865    24.5685 1.5491e+00     22.291     1.1619 0.0000e+00
     21.000     8.5391    31.6513    9.44377   99.09848    24.5666 1.5515e+00     21.046     1.1689 0.0000e+00
     20.000     8.5417    31.6512    9.44868   99.15219    24.5663 1.5521e+00     20.238     1.1524 0.0000e+00
     19.000     8.5440    31.6491    9.45210   99.17899    24.5642 1.5524e+00     19.250     1.2015 0.0000e+00
     18.000     8.5451    31.6480    9.45139   99.16410    24.5632 1.5526e+00     18.045     1.2300 0.0000e+00
     17.000     8.5437    31.6474    9.44851   99.14647    24.5626 1.5533e+00     17.222     1.2311 0.0000e+00
     16.000     8.5379    31.6513    9.44363   99.10667    24.5666 1.5540e+00     16.151     1.1582 0.0000e+00
     15.000     8.5399    31.6532    9.44646   99.14217    24.5683 1.5545e+00     15.057     1.1931 0.0000e+00
     14.000     8.5474    31.6476    9.44662   99.15169    24.5627 1.5556e+00     14.178     1.1844 0.0000e+00
     13.000     8.5518    31.6440    9.44745   99.16231    24.5590 1.5563e+00     12.957     1.2234 0.0000e+00
     12.000     8.5558    31.6440    9.44710   99.16752    24.5587 1.5591e+00     12.176     1.1828 0.0000e+00
     11.000     8.5576    31.6409    9.44566   99.16136    24.5556 1.5575e+00     11.114     1.2493 0.0000e+00
     10.000     8.5598    31.6418    9.44994   99.21340    24.5563 1.5616e+00     10.024     1.2241 0.0000e+00
      9.000     8.5647    31.6413    9.45071   99.25622    24.5552 1.5627e+00      9.112     1.2532 0.0000e+00
      8.000     8.5664    31.6393    9.45283   99.31066    24.5531 1.5635e+00      8.081     1.3252 0.0000e+00
      7.000     8.5747    31.6407    9.45674   99.36499    24.5538 1.5658e+00      7.073     1.2425 0.0000e+00
      6.000     8.5960    31.6336    9.45038   99.37423    24.5454 1.5690e+00      6.084     1.3080 0.0000e+00
      5.000     8.6056    31.6249    9.45224   99.51562    24.5363 1.5711e+00      5.065     1.4086 0.0000e+00
      4.000     8.6233    31.6254    9.45437   99.63505    24.5355 1.5738e+00      4.057     1.5169 0.0000e+00
      3.000     8.6928    31.6049    9.45720   99.76451    24.5106 1.5764e+00      3.068     1.6185 0.0000e+00
      2.000     8.7531    31.5681    9.44332   99.65081    24.4718 1.5820e+00      2.025     1.9705 0.0000e+00
      1.000     8.8092    31.5409    9.34730   98.58336    24.4418 1.6040e+00      1.095     2.0119 0.0000e+00
