* Sea-Bird SBE19plus Data File:
* FileName = C:\data\otf\2007\ctd-07108.hex
* Software Version 1.55
* Temperature SN =  5061
* Conductivity SN =  5061
* System UpLoad Time = Aug 15 2007 16:36:45
* ds
* SeacatPlus V 1.6a  SERIAL NO. 5061    15 Aug 2007  15:31:53
* vbatt = 10.9, vlith =  8.7, ioper =  61.6 ma, ipump =  57.5 ma, 
* iext01 =  95.2 ma
* iext23 =  58.1 ma
* 
* status = not logging
* number of scans to average = 1
* samples = 153039, free = 288466, casts = 154
* mode = profile, minimum cond freq = 3000, pump delay = 60 sec
* autorun = no, ignore magnetic switch = no
* battery type = alkaline, battery cutoff =  7.3 volts
* pressure sensor = strain gauge, range = 870.0
* SBE 38 = no, Gas Tension Device = no
* Ext Volt 0 = yes, Ext Volt 1 = yes, Ext Volt 2 = yes, Ext Volt 3 = yes
* echo commands = yes
* output format = raw HEX
* S>
* 
* SeacatPlus V 1.6a  SERIAL NO. 5061    15 Aug 2007  15:32:18
* temperature:  05-oct-06
*     TA0 = 1.254184e-03
*     TA1 = 2.596730e-04
*     TA2 = 5.165612e-07
*     TA3 = 1.318931e-07
*     TOFFSET = 0.000000e+00
* conductivity:  05-oct-06
*     G = -9.978144e-01
*     H = 1.555200e-01
*     I = -4.839108e-04
*     J = 6.121100e-05
*     CF0 = 2.539936e+03
*     CPCOR = -9.570000e-08
*     CTCOR = 3.250000e-06
*     CSLOPE = 1.000000e+00
* pressure S/N = 2362539, range = 870 psia:  24-aug-06
*     PA0 = 2.171091e-01
*     PA1 = 2.647085e-03
*     PA2 = 1.419397e-11
*     PTCA0 = 5.242437e+05
*     PTCA1 = 7.545345e+00
*     PTCA2 = -1.835354e-01
*     PTCB0 = 2.537125e+01
*     PTCB1 = -1.750000e-03
*     PTCB2 = 0.000000e+00
*     PTEMPA0 = -5.753989e+01
*     PTEMPA1 = 5.235813e+01
*     PTEMPA2 = -4.015521e-02
*     POFFSET = 0.000000e+00
* volt 0: offset = -4.682842e-02, slope = 1.249147e+00
* volt 1: offset = -4.695158e-02, slope = 1.248145e+00
* volt 2: offset = -4.685263e-02, slope = 1.248783e+00
* volt 3: offset = -4.690316e-02, slope = 1.249508e+00
*     EXTFREQSF = 1.000002e+00
* dh
* cast 108 21 Jul 2007 11:33:07 samples 69210 to 70558, avg = 1, stop = mag switch
* S> 
# nquan = 10
# nvalues = 173                         
# units = specified
# name 0 = depSM: Depth [salt water, m]
# name 1 = tv290C: Temperature [ITS-90, deg C]
# name 2 = sal00: Salinity [PSU]
# name 3 = sbeox0Mg/L: Oxygen, SBE 43 [mg/l]
# name 4 = sbeox0PS: Oxygen, SBE 43 [% saturation]
# name 5 = sigma-t00: Density [sigma-t, Kg/m^3 ]
# name 6 = par: PAR/Irradiance, Biospherical/Licor
# name 7 = prdM: Pressure, Strain Gauge [db]
# name 8 = flECO-AFL: Fluorescence, Wetlab ECO-AFL/FL [mg/m^3]
# name 9 = flag: flag
# span 0 =      1.000,     89.000       
# span 1 =     8.6022,    10.9628       
# span 2 =    29.5554,    31.4087       
# span 3 =    8.28986,    9.63867       
# span 4 =   89.81416,  102.40773       
# span 5 =    22.5486,    24.3669       
# span 6 = 1.5426e+00, 1.5313e+03       
# span 7 =      1.075,     89.507       
# span 8 =     0.6886,     1.4244       
# span 9 = 0.0000e+00, 0.0000e+00       
# interval = meters: 1                  
# start_time = Jul 21 2007 11:33:07
# bad_flag = -9.990e-29
# sensor 0 = Frequency 0  temperature, 5061, 05-Oct-06
# sensor 1 = Frequency 1  conductivity, 5061, 05-Oct-06, cpcor = -9.5700e-08
# sensor 2 = Pressure Number
# sensor 3 = Extrnl Volt  0  irradiance (PAR), primary, 4751, 08/10/06
# sensor 4 = Extrnl Volt  1  Oxygen, SBE, primary, 1081, 10/24/06
# sensor 5 = Extrnl Volt  2  WET Labs, ECO_AFL
# sensor 6 = Extrnl Volt  3  userpoly 0, 0627, 10/11/06
# datcnv_date = Oct 15 2007 14:49:47, 5.37e
# datcnv_in = I:\bob d\OTF_GEM\2007\ctd-07108.hex I:\Willette\OTF\CTD\5061.con
# datcnv_skipover = 0
# filter_date = Oct 15 2007 15:02:29, 5.37e
# filter_in = I:\Willette\OTF\CTD\2007\CTD Data\ctd-07108.cnv
# filter_low_pass_tc_A = 1.000
# filter_low_pass_tc_B = 0.150
# filter_low_pass_A_vars = prdM
# filter_low_pass_B_vars =
# loopedit_date = Oct 15 2007 15:06:51, 5.37e
# loopedit_in = I:\Willette\OTF\CTD\2007\CTD Data\ctd-07108.cnv
# loopedit_minVelocity = 0.250                                                                                            
# loopedit_surfaceSoak: minDepth = 5.0, maxDepth = 20, useDeckPress = 1                                                   
# loopedit_excl_bad_scans = yes
# alignctd_date = Oct 15 2007 15:14:18, 5.37e
# alignctd_in = I:\Willette\OTF\CTD\2007\CTD Data\ctd-07108.cnv
# alignctd_adv = tv290C 0.500, sbeox0Mg/L 4.000, sbeox0PS 4.000                                                                                                                                                                      
# binavg_date = Oct 15 2007 15:18:46, 5.37e
# binavg_in = I:\Willette\OTF\CTD\2007\CTD Data\ctd-07108.cnv
# binavg_bintype = meters
# binavg_binsize = 1
# binavg_excl_bad_scans = yes
# binavg_skipover = 0
# binavg_surface_bin = no, min = 0.000, max = 0.000, value = 0.000
# file_type = ascii
*END*
      5.000    10.8796    29.7028    8.28986   89.95011    22.6619 3.1632e+02      5.025     0.9155 0.0000e+00
      6.000    10.6690    29.8809    8.44824   91.27141    22.8380 2.2050e+02      6.094     1.1929 0.0000e+00
      7.000    10.5963    29.9781    8.42078   90.71240    22.9330 1.5652e+02      7.152     1.3472 0.0000e+00
      8.000    10.4407    30.0369    8.37054   89.81416    22.9923 1.1500e+02      8.026     1.4244 0.0000e+00
      9.000    10.2240    30.2406    8.46146   90.50811    23.1876 8.1694e+01      8.967     1.3299 0.0000e+00
     10.000     9.9756    30.4760    8.53932   91.15388    23.4124 5.7604e+01     10.133     1.2736 0.0000e+00
     11.000     9.6605    30.7074    8.65435   92.28250    23.6420 4.4929e+01     11.123     1.2918 0.0000e+00
     12.000     9.5522    30.8524    8.79073   93.66724    23.7824 3.4755e+01     12.208     1.2490 0.0000e+00
     13.000     9.4918    30.8955    8.85465   94.25391    23.8267 2.7361e+01     13.220     1.2414 0.0000e+00
     14.000     9.4486    30.9221    8.88211   94.46421    23.8543 2.2054e+01     14.256     1.2513 0.0000e+00
     15.000     9.4233    30.9510    8.87045   94.26612    23.8821 1.8042e+01     15.161     1.2365 0.0000e+00
     16.000     9.3919    30.9784    8.92863   94.84599    23.9070 1.4647e+01     16.130     1.2225 0.0000e+00
     17.000     9.3327    31.0363    8.93084   94.80754    23.9602 1.1928e+01     17.140     1.2148 0.0000e+00
     18.000     9.2904    31.0762    8.91674   94.54586    23.9993 9.8842e+00     18.259     1.2402 0.0000e+00
     19.000     9.2535    31.0885    8.95699   94.88562    24.0148 8.4440e+00     19.162     1.2466 0.0000e+00
     20.000     9.2265    31.1261    9.00337   95.29019    24.0493 7.1526e+00     20.108     1.2750 0.0000e+00
     21.000     9.1834    31.1472    9.10572   96.26936    24.0705 6.1160e+00     21.184     1.3225 0.0000e+00
     22.000     9.1277    31.1779    9.18899   97.09558    24.1031 5.3201e+00     22.173     1.1912 0.0000e+00
     23.000     9.0808    31.1781    9.25588   97.74785    24.1110 4.6437e+00     23.202     1.1581 0.0000e+00
     24.000     9.0183    31.1804    9.30413   98.17598    24.1212 4.1022e+00     24.271     1.1561 0.0000e+00
     25.000     8.9780    31.2175    9.33052   98.41948    24.1585 3.6891e+00     25.225     1.1453 0.0000e+00
     26.000     8.9510    31.2383    9.35582   98.64759    24.1794 3.3369e+00     26.239     1.1049 0.0000e+00
     27.000     8.9140    31.2562    9.36965   98.76765    24.1979 3.0495e+00     27.246     1.0868 0.0000e+00
     28.000     8.8789    31.2819    9.39211   98.98446    24.2247 2.7985e+00     28.313     1.0887 0.0000e+00
     29.000     8.8622    31.2921    9.41034   99.16605    24.2353 2.6022e+00     29.266     1.0722 0.0000e+00
     30.000     8.8460    31.3062    9.42791   99.32535    24.2495 2.4301e+00     30.253     1.0467 0.0000e+00
     31.000     8.8321    31.3140    9.44617   99.51005    24.2577 2.2921e+00     31.248     1.0376 0.0000e+00
     32.000     8.8262    31.3208    9.45588   99.60826    24.2646 2.1716e+00     32.304     1.0364 0.0000e+00
     33.000     8.8147    31.3193    9.46630   99.71564    24.2644 2.0752e+00     33.292     1.0196 0.0000e+00
     34.000     8.8077    31.3247    9.47627   99.81892    24.2705 1.9929e+00     34.295     1.0116 0.0000e+00
     35.000     8.8053    31.3255    9.48068   99.86679    24.2715 1.9246e+00     35.366     0.9873 0.0000e+00
     36.000     8.8043    31.3262    9.48562   99.91885    24.2723 1.8667e+00     36.336     0.9550 0.0000e+00
     37.000     8.8025    31.3264    9.49591  100.02803    24.2726 1.8168e+00     37.338     0.9668 0.0000e+00
     38.000     8.8023    31.3324    9.49773  100.04497    24.2776 1.7749e+00     38.409     0.9668 0.0000e+00
     39.000     8.8024    31.3310    9.50342  100.09841    24.2764 1.7421e+00     39.434     0.9956 0.0000e+00
     40.000     8.8029    31.3318    9.50810  100.13852    24.2770 1.7130e+00     40.242     0.9988 0.0000e+00
     41.000     8.8029    31.3296    9.51379  100.17594    24.2752 1.6842e+00     41.470     0.9825 0.0000e+00
     42.000     8.8004    31.3288    9.52117  100.24932    24.2747 1.6646e+00     42.464     0.9904 0.0000e+00
     43.000     8.7953    31.3323    9.52777  100.30833    24.2781 1.6467e+00     43.342     0.9944 0.0000e+00
     44.000     8.7866    31.3339    9.53197  100.34389    24.2805 1.6305e+00     44.413     0.9724 0.0000e+00
     45.000     8.7825    31.3371    9.53951  100.41901    24.2840 1.6176e+00     45.449     0.9682 0.0000e+00
     46.000     8.7774    31.3372    9.54011  100.42239    24.2846 1.6068e+00     46.417     0.9647 0.0000e+00
     47.000     8.7720    31.3416    9.54132  100.42072    24.2890 1.5973e+00     47.456     0.9956 0.0000e+00
     48.000     8.7692    31.3447    9.54496  100.44806    24.2920 1.5889e+00     48.474     0.9886 0.0000e+00
     49.000     8.7678    31.3457    9.54664  100.45710    24.2931 1.5825e+00     49.427     0.9637 0.0000e+00
     50.000     8.7623    31.3456    9.54724  100.45940    24.2934 1.5765e+00     50.505     1.0007 0.0000e+00
     51.000     8.7562    31.3494    9.55012  100.47287    24.2975 1.5714e+00     51.503     0.9982 0.0000e+00
     52.000     8.7512    31.3509    9.55386  100.49342    24.2994 1.5676e+00     52.458     1.2299 0.0000e+00
     53.000     8.7490    31.3534    9.55250  100.46709    24.3019 1.5638e+00     53.528     1.2535 0.0000e+00
     54.000     8.7442    31.3531    9.55642  100.50616    24.3019 1.5609e+00     54.559     1.2220 0.0000e+00
     55.000     8.7328    31.3540    9.55992  100.54031    24.3041 1.5585e+00     55.486     1.2181 0.0000e+00
     56.000     8.7271    31.3595    9.56373  100.57168    24.3097 1.5561e+00     56.536     1.1753 0.0000e+00
     57.000     8.7241    31.3609    9.57004  100.62201    24.3115 1.5540e+00     57.499     1.1703 0.0000e+00
     58.000     8.7233    31.3619    9.56858  100.55725    24.3123 1.5528e+00     58.606     1.1708 0.0000e+00
     59.000     8.7194    31.3625    9.56589  100.51148    24.3133 1.5513e+00     59.587     1.1625 0.0000e+00
     60.000     8.7155    31.3631    9.56516  100.49753    24.3142 1.5506e+00     60.511     1.1533 0.0000e+00
     61.000     8.6901    31.3628    9.56473  100.49013    24.3165 1.5496e+00     61.635     1.1131 0.0000e+00
     62.000     8.6808    31.3726    9.56872  100.52769    24.3266 1.5481e+00     62.557     1.0937 0.0000e+00
     63.000     8.6761    31.3769    9.56799  100.50119    24.3311 1.5476e+00     63.568     1.0805 0.0000e+00
     64.000     8.6744    31.3786    9.57120  100.52262    24.3328 1.5469e+00     64.711     1.0670 0.0000e+00
     65.000     8.6727    31.3779    9.57702  100.57589    24.3324 1.5459e+00     65.568     1.1004 0.0000e+00
     66.000     8.6641    31.3779    9.57712  100.56490    24.3331 1.5461e+00     66.600     1.0508 0.0000e+00
     67.000     8.6566    31.3834    9.57747  100.57510    24.3391 1.5456e+00     67.624     1.0571 0.0000e+00
     68.000     8.6523    31.3835    9.58533  100.63455    24.3394 1.5447e+00     68.651     1.0338 0.0000e+00
     69.000     8.6473    31.3885    9.58685  100.64232    24.3449 1.5453e+00     69.708     1.0290 0.0000e+00
     70.000     8.6499    31.3868    9.58330  100.59799    24.3428 1.5452e+00     70.664     1.0232 0.0000e+00
     71.000     8.6392    31.3868    9.58398  100.59584    24.3440 1.5445e+00     71.660     1.0184 0.0000e+00
     72.000     8.6350    31.3905    9.58566  100.60312    24.3478 1.5444e+00     72.747     0.9913 0.0000e+00
     73.000     8.6323    31.3919    9.58130  100.55050    24.3495 1.5439e+00     73.606     0.9956 0.0000e+00
     74.000     8.6268    31.3928    9.58043  100.53696    24.3508 1.5437e+00     74.728     0.9635 0.0000e+00
     75.000     8.6216    31.3950    9.58045  100.53397    24.3533 1.5439e+00     75.702     0.9657 0.0000e+00
     76.000     8.6178    31.3976    9.58027  100.52606    24.3560 1.5445e+00     76.749     0.9784 0.0000e+00
     77.000     8.6163    31.3986    9.58467  100.56945    24.3571 1.5443e+00     77.715     0.9584 0.0000e+00
     78.000     8.6140    31.3996    9.58682  100.58667    24.3582 1.5429e+00     78.693     0.9459 0.0000e+00
     79.000     8.6106    31.4024    9.58840  100.60198    24.3609 1.5426e+00     79.849     0.9768 0.0000e+00
     80.000     8.6086    31.4035    9.58629  100.57757    24.3620 1.5429e+00     80.769     0.9685 0.0000e+00
     81.000     8.6066    31.4056    9.58609  100.57774    24.3641 1.5429e+00     81.712     0.9597 0.0000e+00
     82.000     8.6065    31.4057    9.58553  100.56556    24.3641 1.5431e+00     82.833     0.9443 0.0000e+00
     83.000     8.6059    31.4073    9.57904  100.49571    24.3656 1.5432e+00     83.791     0.9579 0.0000e+00
     84.000     8.6052    31.4059    9.57996  100.50458    24.3643 1.5435e+00     84.820     0.9459 0.0000e+00
     85.000     8.6026    31.4084    9.58352  100.54317    24.3669 1.5443e+00     85.794     0.9310 0.0000e+00
     86.000     8.6022    31.4082    9.58285  100.53685    24.3668 1.5442e+00     86.825     0.9108 0.0000e+00
     87.000     8.6028    31.4072    9.59763  100.69420    24.3660 1.5438e+00     87.739     0.9469 0.0000e+00
     88.000     8.6034    31.4067    9.59905  100.71231    24.3655 1.5438e+00     88.788     0.9340 0.0000e+00
     89.000     8.6039    31.4065    9.58834  100.60244    24.3652 1.6320e+00     89.507     1.0259 0.0000e+00
     88.000     8.6051    31.4087    9.60042  100.72658    24.3669 1.5679e+00     88.640     0.9579 0.0000e+00
     87.000     8.6059    31.4075    9.60860  100.81310    24.3656 1.5434e+00     87.694     0.9189 0.0000e+00
     86.000     8.6055    31.4082    9.60793  100.80468    24.3663 1.5441e+00     86.796     0.8908 0.0000e+00
     85.000     8.6054    31.4079    9.61080  100.83715    24.3661 1.5439e+00     85.798     0.9167 0.0000e+00
     84.000     8.6054    31.4076    9.61359  100.86820    24.3658 1.5436e+00     84.845     0.9163 0.0000e+00
     83.000     8.6056    31.4082    9.60831  100.81867    24.3663 1.5438e+00     83.759     0.9142 0.0000e+00
     82.000     8.6070    31.4074    9.60612  100.80036    24.3655 1.5442e+00     82.824     0.9219 0.0000e+00
     81.000     8.6096    31.4066    9.60881  100.83251    24.3646 1.5439e+00     81.738     0.9225 0.0000e+00
     80.000     8.6124    31.4042    9.60665  100.80704    24.3623 1.5437e+00     80.800     0.9258 0.0000e+00
     79.000     8.6147    31.4019    9.60421  100.78366    24.3601 1.5441e+00     79.738     0.9244 0.0000e+00
     78.000     8.6140    31.4014    9.60680  100.81022    24.3597 1.5440e+00     78.779     0.8973 0.0000e+00
     77.000     8.6141    31.4026    9.60681  100.81297    24.3607 1.5438e+00     77.704     0.9522 0.0000e+00
     76.000     8.6148    31.4009    9.61153  100.87038    24.3592 1.5443e+00     76.751     0.9035 0.0000e+00
     75.000     8.6157    31.4010    9.60951  100.85936    24.3592 1.5446e+00     75.744     0.8887 0.0000e+00
     74.000     8.6198    31.3994    9.60757  100.85537    24.3576 1.5447e+00     74.677     0.9002 0.0000e+00
     73.000     8.6252    31.3968    9.61227  100.92044    24.3546 1.5449e+00     73.732     0.8908 0.0000e+00
     72.000     8.6314    31.3965    9.61668  100.97686    24.3538 1.5449e+00     72.696     0.8915 0.0000e+00
     71.000     8.6414    31.3907    9.61146  100.94138    24.3474 1.5439e+00     71.682     0.9035 0.0000e+00
     70.000     8.6456    31.3900    9.61055  100.94396    24.3464 1.5442e+00     70.670     0.9028 0.0000e+00
     69.000     8.6550    31.3873    9.61416  100.98954    24.3429 1.5446e+00     69.684     0.9155 0.0000e+00
     68.000     8.6613    31.3838    9.61477  101.00260    24.3391 1.5453e+00     68.640     0.8891 0.0000e+00
     67.000     8.6648    31.3824    9.60813  100.93132    24.3374 1.5457e+00     67.665     0.9117 0.0000e+00
     66.000     8.6682    31.3808    9.60538  100.91073    24.3356 1.5465e+00     66.611     0.9109 0.0000e+00
     65.000     8.6677    31.3810    9.60593  100.92786    24.3358 1.5468e+00     65.627     0.9068 0.0000e+00
     64.000     8.6726    31.3806    9.61322  101.01184    24.3350 1.5469e+00     64.591     0.9254 0.0000e+00
     63.000     8.6768    31.3781    9.61657  101.06483    24.3322 1.5478e+00     63.647     0.9081 0.0000e+00
     62.000     8.6811    31.3770    9.61722  101.11619    24.3308 1.5487e+00     62.488     0.9028 0.0000e+00
     61.000     8.6908    31.3761    9.61838  101.13483    24.3290 1.5492e+00     61.631     0.8986 0.0000e+00
     60.000     8.7107    31.3687    9.61938  101.15688    24.3202 1.5496e+00     60.521     0.9692 0.0000e+00
     59.000     8.7144    31.3662    9.61891  101.15967    24.3173 1.5510e+00     59.590     0.9365 0.0000e+00
     58.000     8.7192    31.3644    9.61589  101.13596    24.3152 1.5528e+00     58.547     0.9364 0.0000e+00
     57.000     8.7240    31.3635    9.61351  101.11830    24.3139 1.5540e+00     57.541     0.9469 0.0000e+00
     56.000     8.7264    31.3616    9.61607  101.15674    24.3118 1.5559e+00     56.556     0.9697 0.0000e+00
     55.000     8.7315    31.3608    9.61693  101.17892    24.3106 1.5580e+00     55.516     0.9418 0.0000e+00
     54.000     8.7372    31.3595    9.61304  101.14910    24.3088 1.5606e+00     54.507     0.9387 0.0000e+00
     53.000     8.7431    31.3575    9.60901  101.10646    24.3063 1.5638e+00     53.547     0.9603 0.0000e+00
     52.000     8.7471    31.3551    9.61194  101.14499    24.3036 1.5669e+00     52.464     0.9865 0.0000e+00
     51.000     8.7474    31.3553    9.61612  101.20216    24.3038 1.5706e+00     51.515     0.9589 0.0000e+00
     50.000     8.7534    31.3540    9.61717  101.22393    24.3020 1.5754e+00     50.461     0.9634 0.0000e+00
     49.000     8.7595    31.3509    9.60988  101.14890    24.2986 1.5813e+00     49.473     0.9587 0.0000e+00
     48.000     8.7633    31.3486    9.61023  101.15580    24.2961 1.5877e+00     48.461     0.9652 0.0000e+00
     47.000     8.7637    31.3483    9.60973  101.15934    24.2958 1.5952e+00     47.475     0.9593 0.0000e+00
     46.000     8.7663    31.3476    9.61470  101.22400    24.2949 1.6044e+00     46.417     0.9501 0.0000e+00
     45.000     8.7724    31.3460    9.61610  101.24641    24.2929 1.6150e+00     45.445     0.9525 0.0000e+00
     44.000     8.7769    31.3440    9.61478  101.24224    24.2906 1.6280e+00     44.400     0.9526 0.0000e+00
     43.000     8.7819    31.3429    9.61402  101.23862    24.2891 1.6429e+00     43.438     0.9518 0.0000e+00
     42.000     8.7844    31.3410    9.61349  101.23999    24.2870 1.6602e+00     42.386     0.9821 0.0000e+00
     41.000     8.7875    31.3400    9.61282  101.23923    24.2858 1.6808e+00     41.412     0.9692 0.0000e+00
     40.000     8.7915    31.3383    9.61335  101.24754    24.2839 1.7051e+00     40.370     0.9805 0.0000e+00
     39.000     8.7926    31.3373    9.60840  101.20558    24.2828 1.7335e+00     39.376     0.9842 0.0000e+00
     38.000     8.7972    31.3358    9.59968  101.13059    24.2812 1.7678e+00     38.346     0.9625 0.0000e+00
     37.000     8.8039    31.3323    9.60902  101.23481    24.2775 1.8084e+00     37.386     1.0045 0.0000e+00
     36.000     8.8104    31.3272    9.61796  101.33474    24.2723 1.8557e+00     36.316     1.0043 0.0000e+00
     35.000     8.8133    31.3254    9.61862  101.34638    24.2705 1.9127e+00     35.338     1.0113 0.0000e+00
     34.000     8.8154    31.3242    9.61837  101.35082    24.2692 1.9793e+00     34.314     1.0196 0.0000e+00
     33.000     8.8185    31.3224    9.61784  101.35472    24.2674 2.0595e+00     33.324     1.0119 0.0000e+00
     32.000     8.8234    31.3199    9.61894  101.42510    24.2647 2.1532e+00     32.273     0.9866 0.0000e+00
     31.000     8.8380    31.3153    9.62086  101.50205    24.2596 2.2666e+00     31.301     1.0242 0.0000e+00
     30.000     8.8853    31.2892    9.61869  101.49603    24.2322 2.4058e+00     30.283     1.0138 0.0000e+00
     29.000     8.8853    31.2842    9.62381  101.57396    24.2275 2.5637e+00     29.288     1.0395 0.0000e+00
     28.000     8.8995    31.2777    9.62119  101.60335    24.2203 2.7605e+00     28.228     1.0420 0.0000e+00
     27.000     8.9239    31.2674    9.60618  101.46051    24.2094 2.9924e+00     27.281     1.0435 0.0000e+00
     26.000     8.9394    31.2521    9.60237  101.46355    24.1942 3.2725e+00     26.219     1.0560 0.0000e+00
     25.000     8.9569    31.2445    9.61023  101.60343    24.1861 3.6093e+00     25.272     1.0408 0.0000e+00
     24.000     8.9810    31.2316    9.61737  101.76503    24.1725 4.0088e+00     24.209     1.0757 0.0000e+00
     23.000     9.0215    31.2108    9.61035  101.74173    24.1507 4.5112e+00     23.225     1.0540 0.0000e+00
     22.000     9.0570    31.1843    9.60077  101.74342    24.1239 5.1115e+00     22.208     1.0774 0.0000e+00
     21.000     9.0961    31.1637    9.59832  101.78037    24.1029 5.8709e+00     21.172     1.0760 0.0000e+00
     20.000     9.1440    31.1247    9.59268  101.77539    24.0643 6.7661e+00     20.199     1.0896 0.0000e+00
     19.000     9.1698    31.1041    9.58612  101.81347    24.0439 7.9529e+00     19.150     1.1148 0.0000e+00
     18.000     9.2037    31.0855    9.57818  101.77538    24.0252 9.2398e+00     18.214     1.1353 0.0000e+00
     17.000     9.2670    31.0353    9.57735  101.86470    23.9756 1.1113e+01     17.103     1.1240 0.0000e+00
     16.000     9.2921    31.0140    9.57510  101.90179    23.9556 1.3359e+01     16.196     1.1585 0.0000e+00
     15.000     9.3433    30.9655    9.57244  101.94192    23.9095 1.6390e+01     15.108     1.1421 0.0000e+00
     14.000     9.3888    30.9161    9.56587  101.91308    23.8642 2.0312e+01     14.138     1.1360 0.0000e+00
     13.000     9.4238    30.8676    9.55859  101.93060    23.8199 2.5556e+01     13.100     1.1348 0.0000e+00
     12.000     9.4516    30.8420    9.55020  102.04796    23.7963 3.2464e+01     12.134     1.1292 0.0000e+00
     11.000     9.5088    30.7942    9.54249  102.28494    23.7511 4.2044e+01     11.075     1.1318 0.0000e+00
     10.000     9.6318    30.7147    9.52615  102.37656    23.6744 5.5683e+01     10.085     1.1488 0.0000e+00
      9.000     9.7915    30.5789    9.49571  102.31599    23.5432 7.5618e+01      9.134     1.2165 0.0000e+00
      8.000     9.9876    30.3970    9.47131  102.39341    23.3683 1.0571e+02      7.973     1.2203 0.0000e+00
      7.000    10.1138    30.3029    9.45483  102.40773    23.2770 1.4573e+02      7.133     1.2545 0.0000e+00
      6.000    10.3002    30.1494    9.41662  102.26087    23.1267 2.1226e+02      6.019     1.3427 0.0000e+00
      5.000    10.4462    30.0039    9.39406  102.35077    22.9877 3.0290e+02      5.070     1.3238 0.0000e+00
      4.000    10.5915    29.8811    9.34395  101.95745    22.8692 4.2913e+02      4.030     1.2058 0.0000e+00
      3.000    10.7918    29.7119    9.30700  101.69498    22.7046 6.2643e+02      3.048     1.0297 0.0000e+00
      2.000    10.8833    29.6106    9.24967  101.09153    22.6052 8.5807e+02      2.012     0.7665 0.0000e+00
      1.000    10.9628    29.5554    9.63867   99.38311    22.5486 1.5313e+03      1.075     0.6886 0.0000e+00
