* Sea-Bird SBE19plus Data File:
* FileName = C:\data\otf\2007\ctd-07113.hex
* Software Version 1.55
* Temperature SN =  5061
* Conductivity SN =  5061
* System UpLoad Time = Aug 15 2007 16:41:32
* ds
* SeacatPlus V 1.6a  SERIAL NO. 5061    15 Aug 2007  15:31:53
* vbatt = 10.9, vlith =  8.7, ioper =  61.6 ma, ipump =  57.5 ma, 
* iext01 =  95.2 ma
* iext23 =  58.1 ma
* 
* status = not logging
* number of scans to average = 1
* samples = 153039, free = 288466, casts = 154
* mode = profile, minimum cond freq = 3000, pump delay = 60 sec
* autorun = no, ignore magnetic switch = no
* battery type = alkaline, battery cutoff =  7.3 volts
* pressure sensor = strain gauge, range = 870.0
* SBE 38 = no, Gas Tension Device = no
* Ext Volt 0 = yes, Ext Volt 1 = yes, Ext Volt 2 = yes, Ext Volt 3 = yes
* echo commands = yes
* output format = raw HEX
* S>
* 
* SeacatPlus V 1.6a  SERIAL NO. 5061    15 Aug 2007  15:32:18
* temperature:  05-oct-06
*     TA0 = 1.254184e-03
*     TA1 = 2.596730e-04
*     TA2 = 5.165612e-07
*     TA3 = 1.318931e-07
*     TOFFSET = 0.000000e+00
* conductivity:  05-oct-06
*     G = -9.978144e-01
*     H = 1.555200e-01
*     I = -4.839108e-04
*     J = 6.121100e-05
*     CF0 = 2.539936e+03
*     CPCOR = -9.570000e-08
*     CTCOR = 3.250000e-06
*     CSLOPE = 1.000000e+00
* pressure S/N = 2362539, range = 870 psia:  24-aug-06
*     PA0 = 2.171091e-01
*     PA1 = 2.647085e-03
*     PA2 = 1.419397e-11
*     PTCA0 = 5.242437e+05
*     PTCA1 = 7.545345e+00
*     PTCA2 = -1.835354e-01
*     PTCB0 = 2.537125e+01
*     PTCB1 = -1.750000e-03
*     PTCB2 = 0.000000e+00
*     PTEMPA0 = -5.753989e+01
*     PTEMPA1 = 5.235813e+01
*     PTEMPA2 = -4.015521e-02
*     POFFSET = 0.000000e+00
* volt 0: offset = -4.682842e-02, slope = 1.249147e+00
* volt 1: offset = -4.695158e-02, slope = 1.248145e+00
* volt 2: offset = -4.685263e-02, slope = 1.248783e+00
* volt 3: offset = -4.690316e-02, slope = 1.249508e+00
*     EXTFREQSF = 1.000002e+00
* dh
* cast 113 22 Jul 2007 11:58:57 samples 74642 to 75706, avg = 1, stop = mag switch
* S> 
# nquan = 10
# nvalues = 155                         
# units = specified
# name 0 = depSM: Depth [salt water, m]
# name 1 = tv290C: Temperature [ITS-90, deg C]
# name 2 = sal00: Salinity [PSU]
# name 3 = sbeox0Mg/L: Oxygen, SBE 43 [mg/l]
# name 4 = sbeox0PS: Oxygen, SBE 43 [% saturation]
# name 5 = sigma-t00: Density [sigma-t, Kg/m^3 ]
# name 6 = par: PAR/Irradiance, Biospherical/Licor
# name 7 = prdM: Pressure, Strain Gauge [db]
# name 8 = flECO-AFL: Fluorescence, Wetlab ECO-AFL/FL [mg/m^3]
# name 9 = flag: flag
# span 0 =      1.000,     80.000       
# span 1 =     8.5665,    10.2759       
# span 2 =    30.0988,    31.4489       
# span 3 =    8.51143,    9.82620       
# span 4 =   91.60669,  102.06224       
# span 5 =    23.0839,    24.4039       
# span 6 = 1.5493e+00, 8.1460e+01       
# span 7 =      1.121,     80.551       
# span 8 =     0.8097,     1.5301       
# span 9 = 0.0000e+00, 0.0000e+00       
# interval = meters: 1                  
# start_time = Jul 22 2007 11:58:57
# bad_flag = -9.990e-29
# sensor 0 = Frequency 0  temperature, 5061, 05-Oct-06
# sensor 1 = Frequency 1  conductivity, 5061, 05-Oct-06, cpcor = -9.5700e-08
# sensor 2 = Pressure Number
# sensor 3 = Extrnl Volt  0  irradiance (PAR), primary, 4751, 08/10/06
# sensor 4 = Extrnl Volt  1  Oxygen, SBE, primary, 1081, 10/24/06
# sensor 5 = Extrnl Volt  2  WET Labs, ECO_AFL
# sensor 6 = Extrnl Volt  3  userpoly 0, 0627, 10/11/06
# datcnv_date = Oct 15 2007 14:49:48, 5.37e
# datcnv_in = I:\bob d\OTF_GEM\2007\ctd-07113.hex I:\Willette\OTF\CTD\5061.con
# datcnv_skipover = 0
# filter_date = Oct 15 2007 15:02:30, 5.37e
# filter_in = I:\Willette\OTF\CTD\2007\CTD Data\ctd-07113.cnv
# filter_low_pass_tc_A = 1.000
# filter_low_pass_tc_B = 0.150
# filter_low_pass_A_vars = prdM
# filter_low_pass_B_vars =
# loopedit_date = Oct 15 2007 15:06:51, 5.37e
# loopedit_in = I:\Willette\OTF\CTD\2007\CTD Data\ctd-07113.cnv
# loopedit_minVelocity = 0.250                                                                                            
# loopedit_surfaceSoak: minDepth = 5.0, maxDepth = 20, useDeckPress = 1                                                   
# loopedit_excl_bad_scans = yes
# alignctd_date = Oct 15 2007 15:14:18, 5.37e
# alignctd_in = I:\Willette\OTF\CTD\2007\CTD Data\ctd-07113.cnv
# alignctd_adv = tv290C 0.500, sbeox0Mg/L 4.000, sbeox0PS 4.000                                                                                                                                                                      
# binavg_date = Oct 15 2007 15:18:47, 5.37e
# binavg_in = I:\Willette\OTF\CTD\2007\CTD Data\ctd-07113.cnv
# binavg_bintype = meters
# binavg_binsize = 1
# binavg_excl_bad_scans = yes
# binavg_skipover = 0
# binavg_surface_bin = no, min = 0.000, max = 0.000, value = 0.000
# file_type = ascii
*END*
      5.000    10.2347    30.1366    8.51143   91.60669    23.1148 2.6495e+01      5.169     1.3818 0.0000e+00
      6.000    10.1623    30.1760    8.54974   91.92563    23.1551 2.1512e+01      6.107     1.3704 0.0000e+00
      7.000    10.1078    30.2443    8.65889   92.97062    23.2190 1.6267e+01      7.047     1.2401 0.0000e+00
      8.000    10.0669    30.3360    8.75104   93.84658    23.2985 1.2240e+01      8.066     1.2533 0.0000e+00
      9.000    10.0121    30.3916    8.70224   93.25837    23.3492 9.4635e+00      9.172     1.2698 0.0000e+00
     10.000     9.9580    30.4278    8.67580   92.90509    23.3856 7.6036e+00     10.106     1.2699 0.0000e+00
     11.000     9.8801    30.4715    8.75278   93.66792    23.4287 6.1772e+00     10.988     1.2405 0.0000e+00
     12.000     9.8107    30.5587    8.77196   93.79255    23.5123 5.0513e+00     12.018     1.2230 0.0000e+00
     13.000     9.7659    30.5944    8.88409   94.68243    23.5482 4.2294e+00     13.170     1.2223 0.0000e+00
     14.000     9.7121    30.6279    8.93063   94.96469    23.5824 3.6274e+00     14.170     1.2261 0.0000e+00
     15.000     9.6600    30.6678    8.93405   94.85574    23.6222 3.1470e+00     15.353     1.2478 0.0000e+00
     16.000     9.6040    30.6840    9.00655   95.51138    23.6397 2.8321e+00     16.161     1.2651 0.0000e+00
     17.000     9.4275    30.7738    9.07306   96.14653    23.7253 2.5340e+00     17.041     1.2972 0.0000e+00
     18.000     9.2863    31.0010    9.05589   95.88856    23.9378 2.2990e+00     18.267     1.4887 0.0000e+00
     19.000     9.2296    31.0664    9.05495   95.83009    23.9988 2.1603e+00     19.276     1.5200 0.0000e+00
     20.000     9.1630    31.1059    9.08333   96.09690    24.0376 2.0528e+00     20.104     1.4939 0.0000e+00
     21.000     9.1065    31.1691    9.09914   96.22367    24.0994 1.9619e+00     21.106     1.5020 0.0000e+00
     22.000     9.0725    31.1949    9.12498   96.45490    24.1264 1.8962e+00     22.260     1.5033 0.0000e+00
     23.000     9.0442    31.2090    9.13917   96.58407    24.1418 1.8423e+00     23.183     1.5146 0.0000e+00
     24.000     9.0187    31.2324    9.16176   96.81328    24.1646 1.7932e+00     24.237     1.5037 0.0000e+00
     25.000     8.9939    31.2440    9.16768   96.87066    24.1772 1.7535e+00     25.245     1.5301 0.0000e+00
     26.000     8.9737    31.2627    9.15067   96.66080    24.1957 1.7193e+00     26.304     1.4892 0.0000e+00
     27.000     8.9621    31.2709    9.18099   96.94841    24.2043 1.6931e+00     27.302     1.4761 0.0000e+00
     28.000     8.9562    31.2767    9.23919   97.55244    24.2101 1.6719e+00     28.182     1.4607 0.0000e+00
     29.000     8.9531    31.2872    9.30136   98.19506    24.2191 1.6524e+00     29.224     1.4658 0.0000e+00
     30.000     8.9438    31.2859    9.35089   98.71318    24.2188 1.6375e+00     30.293     1.4636 0.0000e+00
     31.000     8.9277    31.2744    9.38009   98.99837    24.2120 1.6243e+00     31.282     1.4676 0.0000e+00
     32.000     8.9190    31.2809    9.40505   99.21049    24.2190 1.6130e+00     32.307     1.4775 0.0000e+00
     33.000     8.9119    31.2857    9.42328   99.36767    24.2240 1.6039e+00     33.287     1.4325 0.0000e+00
     34.000     8.9084    31.2911    9.43237   99.41842    24.2289 1.5956e+00     34.350     1.4338 0.0000e+00
     35.000     8.8956    31.2921    9.44581   99.54125    24.2305 1.5888e+00     35.439     1.4310 0.0000e+00
     36.000     8.8716    31.2899    9.45740   99.67158    24.2314 1.5837e+00     36.259     1.3905 0.0000e+00
     37.000     8.8553    31.3010    9.46359   99.73099    24.2434 1.5790e+00     37.278     1.3386 0.0000e+00
     38.000     8.8312    31.3068    9.46935   99.78177    24.2517 1.5751e+00     38.433     1.3067 0.0000e+00
     39.000     8.8235    31.3213    9.48125   99.89254    24.2653 1.5718e+00     39.345     1.2765 0.0000e+00
     40.000     8.8253    31.3295    9.48696   99.93787    24.2719 1.5687e+00     40.258     1.2417 0.0000e+00
     41.000     8.8206    31.3259    9.49346   99.98689    24.2693 1.5662e+00     41.472     1.2687 0.0000e+00
     42.000     8.8157    31.3317    9.49591   99.99353    24.2746 1.5637e+00     42.443     1.2394 0.0000e+00
     43.000     8.8064    31.3315    9.49843  100.00368    24.2754 1.5617e+00     43.402     1.1941 0.0000e+00
     44.000     8.7997    31.3364    9.49815   99.98114    24.2806 1.5606e+00     44.366     1.1821 0.0000e+00
     45.000     8.7925    31.3365    9.49805   99.96749    24.2816 1.5590e+00     45.324     1.1657 0.0000e+00
     46.000     8.7824    31.3366    9.51070  100.07559    24.2833 1.5578e+00     46.467     1.1291 0.0000e+00
     47.000     8.7722    31.3333    9.52168  100.17876    24.2820 1.5574e+00     47.495     1.0956 0.0000e+00
     48.000     8.7660    31.3344    9.52752  100.23280    24.2842 1.5560e+00     48.453     1.0768 0.0000e+00
     49.000     8.7581    31.3332    9.53211  100.26165    24.2841 1.5555e+00     49.477     1.0737 0.0000e+00
     50.000     8.7496    31.3359    9.53560  100.27990    24.2878 1.5549e+00     50.424     1.0353 0.0000e+00
     51.000     8.7453    31.3377    9.53004  100.19490    24.2900 1.5540e+00     51.498     1.0169 0.0000e+00
     52.000     8.7396    31.3361    9.53703  100.21772    24.2893 1.5536e+00     52.533     1.0093 0.0000e+00
     53.000     8.7284    31.3384    9.54039  100.21535    24.2926 1.5531e+00     53.420     0.9895 0.0000e+00
     54.000     8.7148    31.3452    9.54717  100.26311    24.2999 1.5526e+00     54.574     0.9744 0.0000e+00
     55.000     8.6906    31.3492    9.55265  100.30166    24.3055 1.5519e+00     55.522     0.9650 0.0000e+00
     56.000     8.6660    31.3690    9.55128  100.24892    24.3253 1.5519e+00     56.476     0.9402 0.0000e+00
     57.000     8.6544    31.3804    9.54717  100.17487    24.3365 1.5517e+00     57.526     0.9309 0.0000e+00
     58.000     8.6399    31.3920    9.55208  100.19744    24.3476 1.5515e+00     58.565     0.9210 0.0000e+00
     59.000     8.6160    31.4084    9.55372  100.20476    24.3637 1.5513e+00     59.549     0.9122 0.0000e+00
     60.000     8.5967    31.4240    9.55746  100.23030    24.3790 1.5510e+00     60.656     0.9212 0.0000e+00
     61.000     8.5858    31.4336    9.55464  100.19415    24.3883 1.5508e+00     61.442     0.9141 0.0000e+00
     62.000     8.5796    31.4413    9.55244  100.17150    24.3959 1.5506e+00     62.623     0.8993 0.0000e+00
     63.000     8.5734    31.4446    9.56151  100.26296    24.3994 1.5508e+00     63.577     0.8968 0.0000e+00
     64.000     8.5721    31.4463    9.56061  100.25186    24.4011 1.5505e+00     64.687     0.8676 0.0000e+00
     65.000     8.5701    31.4472    9.56060  100.25209    24.4020 1.5504e+00     65.554     0.8767 0.0000e+00
     66.000     8.5690    31.4482    9.56364  100.28321    24.4030 1.5507e+00     66.813     0.8628 0.0000e+00
     67.000     8.5690    31.4484    9.56637  100.30963    24.4033 1.5502e+00     67.615     0.8895 0.0000e+00
     68.000     8.5693    31.4480    9.57098  100.35833    24.4028 1.5504e+00     68.670     0.8766 0.0000e+00
     69.000     8.5682    31.4478    9.57574  100.40863    24.4028 1.5505e+00     69.787     0.8710 0.0000e+00
     70.000     8.5677    31.4484    9.57648  100.41692    24.4034 1.5504e+00     70.687     0.8575 0.0000e+00
     71.000     8.5678    31.4488    9.57464  100.39832    24.4037 1.5500e+00     71.723     0.8647 0.0000e+00
     72.000     8.5681    31.4488    9.58066  100.46174    24.4037 1.5502e+00     72.719     0.8363 0.0000e+00
     73.000     8.5685    31.4478    9.58299  100.48497    24.4029 1.5499e+00     73.642     0.8660 0.0000e+00
     74.000     8.5689    31.4472    9.58112  100.46551    24.4023 1.5500e+00     74.760     0.8461 0.0000e+00
     75.000     8.5690    31.4472    9.57877  100.44191    24.4023 1.5498e+00     75.757     0.8377 0.0000e+00
     76.000     8.5683    31.4477    9.58402  100.49788    24.4027 1.5498e+00     76.684     0.8348 0.0000e+00
     77.000     8.5683    31.4485    9.59979  100.66471    24.4034 1.5501e+00     77.663     0.8302 0.0000e+00
     78.000     8.5689    31.4476    9.60202  100.69041    24.4026 1.5498e+00     78.691     0.8339 0.0000e+00
     79.000     8.5697    31.4470    9.59783  100.64885    24.4020 1.5496e+00     79.648     0.8384 0.0000e+00
     80.000     8.5737    31.4458    9.58711  100.53507    24.4005 1.5747e+00     80.551     0.8888 0.0000e+00
     79.000     8.5726    31.4454    9.58875  100.55271    24.4002 1.5513e+00     79.735     0.8622 0.0000e+00
     78.000     8.5717    31.4461    9.59444  100.61021    24.4010 1.5497e+00     78.675     0.8279 0.0000e+00
     77.000     8.5723    31.4460    9.59477  100.61351    24.4008 1.5496e+00     77.749     0.8325 0.0000e+00
     76.000     8.5713    31.4460    9.59489  100.61414    24.4010 1.5495e+00     76.729     0.8657 0.0000e+00
     75.000     8.5709    31.4462    9.59094  100.57159    24.4012 1.5494e+00     75.713     0.8530 0.0000e+00
     74.000     8.5707    31.4469    9.58971  100.55768    24.4018 1.5494e+00     74.673     0.8573 0.0000e+00
     73.000     8.5704    31.4463    9.59027  100.56266    24.4013 1.5496e+00     73.737     0.8303 0.0000e+00
     72.000     8.5698    31.4463    9.59579  100.62016    24.4014 1.5495e+00     72.677     0.8382 0.0000e+00
     71.000     8.5693    31.4466    9.59682  100.62859    24.4018 1.5494e+00     71.667     0.8642 0.0000e+00
     70.000     8.5692    31.4464    9.59188  100.57628    24.4016 1.5494e+00     70.701     0.8579 0.0000e+00
     69.000     8.5677    31.4482    9.59629  100.62194    24.4032 1.5497e+00     69.635     0.8730 0.0000e+00
     68.000     8.5673    31.4485    9.60056  100.66562    24.4035 1.5493e+00     68.699     0.8548 0.0000e+00
     67.000     8.5671    31.4486    9.59975  100.65682    24.4037 1.5494e+00     67.613     0.8488 0.0000e+00
     66.000     8.5666    31.4488    9.59788  100.63744    24.4038 1.5495e+00     66.675     0.8222 0.0000e+00
     65.000     8.5665    31.4489    9.59527  100.61362    24.4039 1.5495e+00     65.615     0.8538 0.0000e+00
     64.000     8.5666    31.4487    9.59445  100.61405    24.4038 1.5496e+00     64.593     0.8295 0.0000e+00
     63.000     8.5687    31.4476    9.59500  100.63707    24.4027 1.5495e+00     63.645     0.8388 0.0000e+00
     62.000     8.5744    31.4457    9.59464  100.65127    24.4006 1.5496e+00     62.585     0.8354 0.0000e+00
     61.000     8.5851    31.4386    9.59441  100.66675    24.3935 1.5497e+00     61.523     0.8097 0.0000e+00
     60.000     8.5933    31.4325    9.59492  100.70281    24.3875 1.5497e+00     60.598     0.8328 0.0000e+00
     59.000     8.6033    31.4244    9.60261  100.81406    24.3796 1.5499e+00     59.540     0.8116 0.0000e+00
     58.000     8.6224    31.4132    9.60053  100.81852    24.3685 1.5501e+00     58.557     0.8619 0.0000e+00
     57.000     8.6381    31.3993    9.60551  100.88999    24.3551 1.5507e+00     57.529     0.8440 0.0000e+00
     56.000     8.6523    31.3865    9.60042  100.85352    24.3430 1.5506e+00     56.595     0.8267 0.0000e+00
     55.000     8.6646    31.3754    9.59834  100.86925    24.3321 1.5505e+00     55.439     0.8216 0.0000e+00
     54.000     8.6742    31.3711    9.59582  100.87478    24.3276 1.5509e+00     54.561     0.8242 0.0000e+00
     53.000     8.6897    31.3623    9.59791  100.92662    24.3185 1.5512e+00     53.525     0.8646 0.0000e+00
     52.000     8.7100    31.3548    9.59412  100.89982    24.3098 1.5511e+00     52.468     0.8598 0.0000e+00
     51.000     8.7232    31.3481    9.59073  100.86810    24.3021 1.5521e+00     51.502     0.8706 0.0000e+00
     50.000     8.7292    31.3409    9.59325  100.90485    24.2953 1.5523e+00     50.477     0.8598 0.0000e+00
     49.000     8.7314    31.3401    9.59208  100.92097    24.2943 1.5529e+00     49.388     0.8629 0.0000e+00
     48.000     8.7341    31.3403    9.58838  100.89595    24.2942 1.5539e+00     48.466     0.8778 0.0000e+00
     47.000     8.7436    31.3429    9.58714  100.89712    24.2951 1.5544e+00     47.398     0.8747 0.0000e+00
     46.000     8.7507    31.3424    9.58441  100.87959    24.2935 1.5552e+00     46.414     0.9086 0.0000e+00
     45.000     8.7563    31.3432    9.58118  100.85840    24.2932 1.5566e+00     45.465     0.9327 0.0000e+00
     44.000     8.7606    31.3416    9.58212  100.91164    24.2912 1.5579e+00     44.398     0.9233 0.0000e+00
     43.000     8.7665    31.3433    9.57951  100.92107    24.2918 1.5595e+00     43.425     0.9463 0.0000e+00
     42.000     8.7748    31.3453    9.57914  100.95218    24.2925 1.5611e+00     42.419     0.9121 0.0000e+00
     41.000     8.7981    31.3473    9.57697  100.94607    24.2910 1.5629e+00     41.378     0.9587 0.0000e+00
     40.000     8.8144    31.3408    9.57717  100.97307    24.2833 1.5659e+00     40.430     0.9963 0.0000e+00
     39.000     8.8299    31.3317    9.58405  101.07537    24.2733 1.5685e+00     39.312     1.0187 0.0000e+00
     38.000     8.8401    31.3246    9.58687  101.12678    24.2665 1.5719e+00     38.413     1.0190 0.0000e+00
     37.000     8.8563    31.3140    9.58555  101.14122    24.2556 1.5761e+00     37.368     1.0279 0.0000e+00
     36.000     8.8695    31.3080    9.58585  101.17044    24.2490 1.5810e+00     36.366     1.0409 0.0000e+00
     35.000     8.8850    31.3031    9.58109  101.13504    24.2427 1.5863e+00     35.263     1.0639 0.0000e+00
     34.000     8.8976    31.2960    9.58043  101.15366    24.2352 1.5935e+00     34.342     1.0690 0.0000e+00
     33.000     8.9069    31.2893    9.58158  101.19787    24.2284 1.6022e+00     33.299     1.0408 0.0000e+00
     32.000     8.9206    31.2820    9.58817  101.28285    24.2208 1.6125e+00     32.319     1.0809 0.0000e+00
     31.000     8.9349    31.2760    9.58483  101.24732    24.2141 1.6228e+00     31.331     1.0852 0.0000e+00
     30.000     8.9455    31.2691    9.58665  101.26586    24.2065 1.6364e+00     30.238     1.0750 0.0000e+00
     29.000     8.9463    31.2628    9.58691  101.27342    24.2014 1.6534e+00     29.289     1.0874 0.0000e+00
     28.000     8.9476    31.2576    9.58677  101.28730    24.1972 1.6716e+00     28.254     1.1116 0.0000e+00
     27.000     8.9511    31.2517    9.58103  101.24711    24.1922 1.6939e+00     27.303     1.0766 0.0000e+00
     26.000     8.9617    31.2431    9.58073  101.28980    24.1839 1.7239e+00     26.186     1.0860 0.0000e+00
     25.000     8.9748    31.2376    9.57401  101.25925    24.1783 1.7583e+00     25.268     1.0643 0.0000e+00
     24.000     8.9972    31.2185    9.58201  101.39574    24.1597 1.7968e+00     24.219     1.0712 0.0000e+00
     23.000     9.0226    31.2034    9.58324  101.47254    24.1445 1.8491e+00     23.247     1.1003 0.0000e+00
     22.000     9.0504    31.1852    9.57961  101.57261    24.1258 1.9131e+00     22.158     1.1030 0.0000e+00
     21.000     9.0758    31.1745    9.57941  101.63662    24.1141 1.9828e+00     21.221     1.0679 0.0000e+00
     20.000     9.1467    31.1437    9.57688  101.68686    24.0804 2.0760e+00     20.192     1.0697 0.0000e+00
     19.000     9.1993    31.0970    9.56451  101.67527    24.0354 2.2060e+00     19.156     1.1146 0.0000e+00
     18.000     9.2371    31.0468    9.56737  102.01030    23.9891 2.3616e+00     18.182     1.1225 0.0000e+00
     17.000     9.2963    30.9975    9.55652  102.06224    23.9452 2.5772e+00     17.162     1.1351 0.0000e+00
     16.000     9.4875    30.8431    9.54280  101.98860    23.7991 2.8736e+00     16.137     1.0677 0.0000e+00
     15.000     9.5864    30.7254    9.52692  101.90951    23.6858 3.2650e+00     15.135     0.9727 0.0000e+00
     14.000     9.6295    30.6771    9.51122  101.82181    23.6392 3.7573e+00     14.123     0.9116 0.0000e+00
     13.000     9.6792    30.6461    9.50162  101.84109    23.6084 4.3746e+00     13.113     0.8711 0.0000e+00
     12.000     9.7181    30.6136    9.49148  101.87291    23.5762 5.1527e+00     12.143     0.8611 0.0000e+00
     11.000     9.7807    30.5804    9.47787  101.83663    23.5419 6.2615e+00     11.081     0.9014 0.0000e+00
     10.000     9.8614    30.5240    9.46052  101.70470    23.4859 7.6325e+00     10.072     0.9067 0.0000e+00
      9.000     9.9225    30.4736    9.44815  101.65805    23.4355 9.3996e+00      9.142     0.9142 0.0000e+00
      8.000     9.9590    30.4403    9.42347  101.44117    23.4021 1.1767e+01      8.014     0.9434 0.0000e+00
      7.000    10.0164    30.3831    9.40639  101.33116    23.3506 1.5008e+01      7.130     0.9516 0.0000e+00
      6.000    10.0652    30.2983    9.38549  101.23642    23.2740 1.9233e+01      6.000     0.9778 0.0000e+00
      5.000    10.0987    30.2644    9.36201  101.05629    23.2438 2.4723e+01      5.073     0.9874 0.0000e+00
      4.000    10.1708    30.2079    9.34810  100.95118    23.1889 3.1083e+01      4.050     1.0418 0.0000e+00
      3.000    10.2271    30.1489    9.32682  100.75246    23.1327 3.9518e+01      3.045     1.0928 0.0000e+00
      2.000    10.2656    30.1082    9.28622  100.29606    23.0932 4.9568e+01      1.990     1.1711 0.0000e+00
      1.000    10.2759    30.0988    9.82620   99.39015    23.0839 8.1460e+01      1.121     1.2228 0.0000e+00
