* Sea-Bird SBE19plus Data File:
* FileName = C:\data\otf\2007\ctd-07010.hex
* Software Version 1.55
* Temperature SN =  5061
* Conductivity SN =  5061
* System UpLoad Time = Aug 15 2007 15:40:12
* ds
* SeacatPlus V 1.6a  SERIAL NO. 5061    15 Aug 2007  15:31:53
* vbatt = 10.9, vlith =  8.7, ioper =  61.6 ma, ipump =  57.5 ma, 
* iext01 =  95.2 ma
* iext23 =  58.1 ma
* 
* status = not logging
* number of scans to average = 1
* samples = 153039, free = 288466, casts = 154
* mode = profile, minimum cond freq = 3000, pump delay = 60 sec
* autorun = no, ignore magnetic switch = no
* battery type = alkaline, battery cutoff =  7.3 volts
* pressure sensor = strain gauge, range = 870.0
* SBE 38 = no, Gas Tension Device = no
* Ext Volt 0 = yes, Ext Volt 1 = yes, Ext Volt 2 = yes, Ext Volt 3 = yes
* echo commands = yes
* output format = raw HEX
* S>
* 
* SeacatPlus V 1.6a  SERIAL NO. 5061    15 Aug 2007  15:32:18
* temperature:  05-oct-06
*     TA0 = 1.254184e-03
*     TA1 = 2.596730e-04
*     TA2 = 5.165612e-07
*     TA3 = 1.318931e-07
*     TOFFSET = 0.000000e+00
* conductivity:  05-oct-06
*     G = -9.978144e-01
*     H = 1.555200e-01
*     I = -4.839108e-04
*     J = 6.121100e-05
*     CF0 = 2.539936e+03
*     CPCOR = -9.570000e-08
*     CTCOR = 3.250000e-06
*     CSLOPE = 1.000000e+00
* pressure S/N = 2362539, range = 870 psia:  24-aug-06
*     PA0 = 2.171091e-01
*     PA1 = 2.647085e-03
*     PA2 = 1.419397e-11
*     PTCA0 = 5.242437e+05
*     PTCA1 = 7.545345e+00
*     PTCA2 = -1.835354e-01
*     PTCB0 = 2.537125e+01
*     PTCB1 = -1.750000e-03
*     PTCB2 = 0.000000e+00
*     PTEMPA0 = -5.753989e+01
*     PTEMPA1 = 5.235813e+01
*     PTEMPA2 = -4.015521e-02
*     POFFSET = 0.000000e+00
* volt 0: offset = -4.682842e-02, slope = 1.249147e+00
* volt 1: offset = -4.695158e-02, slope = 1.248145e+00
* volt 2: offset = -4.685263e-02, slope = 1.248783e+00
* volt 3: offset = -4.690316e-02, slope = 1.249508e+00
*     EXTFREQSF = 1.000002e+00
* dh
* cast  10 04 Jul 2007 05:47:59 samples 9060 to 10007, avg = 1, stop = mag switch
* S> 
# nquan = 10
# nvalues = 101                         
# units = specified
# name 0 = depSM: Depth [salt water, m]
# name 1 = tv290C: Temperature [ITS-90, deg C]
# name 2 = sal00: Salinity [PSU]
# name 3 = sbeox0Mg/L: Oxygen, SBE 43 [mg/l]
# name 4 = sbeox0PS: Oxygen, SBE 43 [% saturation]
# name 5 = sigma-t00: Density [sigma-t, Kg/m^3 ]
# name 6 = par: PAR/Irradiance, Biospherical/Licor
# name 7 = prdM: Pressure, Strain Gauge [db]
# name 8 = flECO-AFL: Fluorescence, Wetlab ECO-AFL/FL [mg/m^3]
# name 9 = flag: flag
# span 0 =      1.000,     53.000       
# span 1 =     8.3038,     8.8052       
# span 2 =    30.3245,    30.9052       
# span 3 =    8.45156,   10.82264       
# span 4 =   88.33259,  108.23339       
# span 5 =    23.4923,    24.0164       
# span 6 = 1.5497e+00, 2.0590e+01       
# span 7 =      1.076,     53.205       
# span 8 =     0.6157,     0.9798       
# span 9 = 0.0000e+00, 0.0000e+00       
# interval = meters: 1                  
# start_time = Jul 04 2007 05:47:59
# bad_flag = -9.990e-29
# sensor 0 = Frequency 0  temperature, 5061, 05-Oct-06
# sensor 1 = Frequency 1  conductivity, 5061, 05-Oct-06, cpcor = -9.5700e-08
# sensor 2 = Pressure Number
# sensor 3 = Extrnl Volt  0  irradiance (PAR), primary, 4751, 08/10/06
# sensor 4 = Extrnl Volt  1  Oxygen, SBE, primary, 1081, 10/24/06
# sensor 5 = Extrnl Volt  2  WET Labs, ECO_AFL
# sensor 6 = Extrnl Volt  3  userpoly 0, 0627, 10/11/06
# datcnv_date = Oct 15 2007 14:49:42, 5.37e
# datcnv_in = I:\bob d\OTF_GEM\2007\ctd-07010.hex I:\Willette\OTF\CTD\5061.con
# datcnv_skipover = 0
# filter_date = Oct 15 2007 15:02:18, 5.37e
# filter_in = I:\Willette\OTF\CTD\2007\CTD Data\ctd-07010.cnv
# filter_low_pass_tc_A = 1.000
# filter_low_pass_tc_B = 0.150
# filter_low_pass_A_vars = prdM
# filter_low_pass_B_vars =
# loopedit_date = Oct 15 2007 15:06:42, 5.37e
# loopedit_in = I:\Willette\OTF\CTD\2007\CTD Data\ctd-07010.cnv
# loopedit_minVelocity = 0.250                                                                                            
# loopedit_surfaceSoak: minDepth = 5.0, maxDepth = 20, useDeckPress = 1                                                   
# loopedit_excl_bad_scans = yes
# alignctd_date = Oct 15 2007 15:14:11, 5.37e
# alignctd_in = I:\Willette\OTF\CTD\2007\CTD Data\ctd-07010.cnv
# alignctd_adv = tv290C 0.500, sbeox0Mg/L 4.000, sbeox0PS 4.000                                                                                                                                                                      
# binavg_date = Oct 15 2007 15:18:40, 5.37e
# binavg_in = I:\Willette\OTF\CTD\2007\CTD Data\ctd-07010.cnv
# binavg_bintype = meters
# binavg_binsize = 1
# binavg_excl_bad_scans = yes
# binavg_skipover = 0
# binavg_surface_bin = no, min = 0.000, max = 0.000, value = 0.000
# file_type = ascii
*END*
      5.000     8.7379    30.3914    8.60740   89.99562    23.5500 4.7496e+00      5.064     0.6418 0.0000e+00
      6.000     8.7337    30.4077    8.57975   89.68835    23.5640 3.6448e+00      6.016     0.6361 0.0000e+00
      7.000     8.7263    30.4198    8.45156   88.33259    23.5745 2.8988e+00      7.029     0.6340 0.0000e+00
      8.000     8.7200    30.4212    8.53838   89.21671    23.5765 2.4278e+00      8.125     0.6424 0.0000e+00
      9.000     8.7075    30.4250    8.73540   91.23498    23.5810 2.1316e+00      9.127     0.6614 0.0000e+00
     10.000     8.6965    30.4404    8.88198   92.71928    23.5946 1.9348e+00     10.137     0.7002 0.0000e+00
     11.000     8.6739    30.4673    8.97024   93.60293    23.6180 1.8101e+00     11.114     0.6945 0.0000e+00
     12.000     8.6355    30.5274    9.04001   94.27844    23.6705 1.7224e+00     12.160     0.7027 0.0000e+00
     13.000     8.6106    30.5611    9.06516   94.51715    23.7009 1.6724e+00     13.140     0.6881 0.0000e+00
     14.000     8.5829    30.5947    9.06269   94.47857    23.7308 1.6378e+00     14.129     0.6663 0.0000e+00
     15.000     8.5540    30.6309    9.11754   95.00817    23.7639 1.6137e+00     15.127     0.6687 0.0000e+00
     16.000     8.5406    30.6526    9.16512   95.47019    23.7837 1.5966e+00     16.164     0.6666 0.0000e+00
     17.000     8.5295    30.6605    9.22324   96.04719    23.7911 1.5836e+00     17.147     0.7020 0.0000e+00
     18.000     8.4979    30.6912    9.41783   98.05082    23.8191 1.5747e+00     18.189     0.6732 0.0000e+00
     19.000     8.4829    30.7109    9.55523   99.46274    23.8377 1.5682e+00     19.189     0.6677 0.0000e+00
     20.000     8.4651    30.7183    9.64148  100.34235    23.8456 1.5640e+00     20.197     0.6732 0.0000e+00
     21.000     8.4543    30.7322    9.69716  100.89915    23.8586 1.5606e+00     21.248     0.6825 0.0000e+00
     22.000     8.4427    30.7436    9.72177  101.13665    23.8690 1.5584e+00     22.228     0.6269 0.0000e+00
     23.000     8.4329    30.7545    9.74015  101.30668    23.8791 1.5565e+00     23.192     0.6157 0.0000e+00
     24.000     8.4205    30.7655    9.76373  101.54364    23.8892 1.5551e+00     24.218     0.6343 0.0000e+00
     25.000     8.4086    30.7798    9.78543  101.74934    23.9024 1.5543e+00     25.187     0.6362 0.0000e+00
     26.000     8.3940    30.7938    9.79570  101.83408    23.9154 1.5532e+00     26.278     0.6533 0.0000e+00
     27.000     8.3891    30.8011    9.81049  101.98644    23.9222 1.5529e+00     27.308     0.6555 0.0000e+00
     28.000     8.3759    30.8081    9.82649  102.15290    23.9288 1.5529e+00     28.265     0.6193 0.0000e+00
     29.000     8.3661    30.8222    9.84289  102.32385    23.9420 1.5523e+00     29.258     0.6333 0.0000e+00
     30.000     8.3651    30.8254    9.84541  102.34828    23.9451 1.5521e+00     30.244     0.6177 0.0000e+00
     31.000     8.3650    30.8257    9.86561  102.55849    23.9452 1.5520e+00     31.343     0.6254 0.0000e+00
     32.000     8.3646    30.8263    9.86726  102.57367    23.9458 1.5517e+00     32.284     0.6513 0.0000e+00
     33.000     8.3620    30.8327    9.87299  102.63515    23.9511 1.5516e+00     33.398     0.6579 0.0000e+00
     34.000     8.3618    30.8343    9.87906  102.69177    23.9524 1.5515e+00     34.288     0.6580 0.0000e+00
     35.000     8.3607    30.8371    9.88508  102.74271    23.9548 1.5513e+00     35.295     0.6495 0.0000e+00
     36.000     8.3608    30.8373    9.89619  102.84888    23.9550 1.5512e+00     36.288     0.7269 0.0000e+00
     37.000     8.3557    30.8429    9.90422  102.92390    23.9597 1.5515e+00     37.335     0.7049 0.0000e+00
     38.000     8.3471    30.8552    9.90087  102.88739    23.9705 1.5513e+00     38.295     0.7460 0.0000e+00
     39.000     8.3403    30.8639    9.91511  103.03958    23.9786 1.5600e+00     39.308     0.8231 0.0000e+00
     40.000     8.3364    30.8697    9.91654  103.06155    23.9839 1.5542e+00     40.377     0.8350 0.0000e+00
     41.000     8.3388    30.8666    9.92339  103.13382    23.9811 1.5513e+00     41.490     0.8171 0.0000e+00
     42.000     8.3428    30.8649    9.93153  103.19816    23.9797 1.5512e+00     42.417     0.8289 0.0000e+00
     43.000     8.3448    30.8597    9.93317  103.18934    23.9747 1.5509e+00     43.500     0.8349 0.0000e+00
     44.000     8.3436    30.8614    9.93192  103.18998    23.9764 1.5511e+00     44.423     0.7914 0.0000e+00
     45.000     8.3259    30.8726    9.93638  103.23177    23.9862 1.5509e+00     45.421     0.8218 0.0000e+00
     46.000     8.3179    30.8927    9.93250  103.17890    24.0050 1.5513e+00     46.505     0.8299 0.0000e+00
     47.000     8.3236    30.8844    9.95010  103.36896    23.9974 1.5511e+00     47.487     0.9016 0.0000e+00
     48.000     8.3216    30.8852    9.93492  103.19395    23.9981 1.5507e+00     48.447     0.8915 0.0000e+00
     49.000     8.3147    30.8901    9.93551  103.19441    24.0025 1.5515e+00     49.487     0.8707 0.0000e+00
     50.000     8.3175    30.8931    9.93075  103.14569    24.0055 1.5524e+00     50.469     0.8602 0.0000e+00
     51.000     8.3121    30.8917    9.93063  103.14813    24.0039 1.5514e+00     51.375     0.9210 0.0000e+00
     52.000     8.3038    30.9033    9.93647  103.20727    24.0147 1.5508e+00     52.338     0.9136 0.0000e+00
     53.000     8.3044    30.9052    9.93594  103.20676    24.0164 1.5506e+00     53.205     0.9767 0.0000e+00
     52.000     8.3056    30.9039    9.95116  103.37412    24.0151 1.5508e+00     52.544     0.9707 0.0000e+00
     51.000     8.3136    30.8957    9.95174  103.39037    24.0077 1.5504e+00     51.448     0.9212 0.0000e+00
     50.000     8.3205    30.8887    9.96448  103.52546    24.0012 1.5503e+00     50.419     0.8512 0.0000e+00
     49.000     8.3212    30.8873    9.96416  103.52227    23.9999 1.5503e+00     49.462     0.8396 0.0000e+00
     48.000     8.3218    30.8867    9.97204  103.60375    23.9994 1.5501e+00     48.485     0.9305 0.0000e+00
     47.000     8.3219    30.8857    9.98503  103.74055    23.9986 1.5501e+00     47.432     0.9798 0.0000e+00
     46.000     8.3211    30.8872   10.01006  104.00357    23.9998 1.5500e+00     46.422     0.9015 0.0000e+00
     45.000     8.3230    30.8858   10.01666  104.07306    23.9985 1.5499e+00     45.420     0.9085 0.0000e+00
     44.000     8.3245    30.8832   10.01343  104.04692    23.9963 1.5499e+00     44.470     0.8917 0.0000e+00
     43.000     8.3256    30.8814   10.02697  104.20336    23.9946 1.5497e+00     43.392     0.8861 0.0000e+00
     42.000     8.3312    30.8773   10.03579  104.30323    23.9910 1.5498e+00     42.403     0.8550 0.0000e+00
     41.000     8.3401    30.8663   10.04580  104.41201    23.9810 1.5497e+00     41.391     0.8230 0.0000e+00
     40.000     8.3451    30.8613   10.04376  104.40335    23.9763 1.5502e+00     40.387     0.7986 0.0000e+00
     39.000     8.3484    30.8575   10.22334  106.27413    23.9728 1.5499e+00     39.358     0.7910 0.0000e+00
     38.000     8.3560    30.8483   10.21374  106.17710    23.9645 1.5498e+00     38.362     0.7586 0.0000e+00
     37.000     8.3578    30.8458   10.20962  106.13730    23.9622 1.5501e+00     37.372     0.7859 0.0000e+00
     36.000     8.3603    30.8418   10.21507  106.19516    23.9586 1.5498e+00     36.334     0.8192 0.0000e+00
     35.000     8.3624    30.8389   10.21553  106.19788    23.9561 1.5500e+00     35.302     0.8022 0.0000e+00
     34.000     8.3633    30.8366   10.21043  106.14418    23.9540 1.5500e+00     34.334     0.7898 0.0000e+00
     33.000     8.3624    30.8365   10.19890  106.02496    23.9541 1.5498e+00     33.326     0.7271 0.0000e+00
     32.000     8.3631    30.8343   10.19188  105.95246    23.9524 1.5498e+00     32.276     0.7484 0.0000e+00
     31.000     8.3645    30.8292   10.19268  105.96401    23.9482 1.5499e+00     31.298     0.7147 0.0000e+00
     30.000     8.3658    30.8263   10.19398  105.98578    23.9457 1.5501e+00     30.286     0.7066 0.0000e+00
     29.000     8.3681    30.8220   10.19734  106.02683    23.9421 1.5502e+00     29.260     0.6559 0.0000e+00
     28.000     8.3727    30.8176   10.21647  106.23193    23.9381 1.5507e+00     28.306     0.6382 0.0000e+00
     27.000     8.3760    30.8146   10.23028  106.38685    23.9351 1.5506e+00     27.227     0.6741 0.0000e+00
     26.000     8.3799    30.8116   10.22525  106.36487    23.9324 1.5511e+00     26.268     0.6713 0.0000e+00
     25.000     8.3857    30.8054   10.22533  106.38657    23.9268 1.5515e+00     25.221     0.7230 0.0000e+00
     24.000     8.4046    30.7877   10.23028  106.45451    23.9106 1.5526e+00     24.227     0.6769 0.0000e+00
     23.000     8.4163    30.7737   10.22718  106.44154    23.8975 1.5538e+00     23.229     0.6608 0.0000e+00
     22.000     8.4269    30.7628   10.22456  106.43125    23.8875 1.5557e+00     22.195     0.6620 0.0000e+00
     21.000     8.4378    30.7516   10.23985  106.60184    23.8773 1.5580e+00     21.247     0.6742 0.0000e+00
     20.000     8.4487    30.7377   10.26845  106.91486    23.8644 1.5610e+00     20.124     0.6624 0.0000e+00
     19.000     8.4548    30.7320   10.26071  106.85123    23.8593 1.5655e+00     19.203     0.6716 0.0000e+00
     18.000     8.4643    30.7217   10.27855  107.04863    23.8499 1.5715e+00     18.163     0.6706 0.0000e+00
     17.000     8.4748    30.7081   10.28664  107.14449    23.8376 1.5809e+00     17.139     0.6909 0.0000e+00
     16.000     8.4810    30.7008   10.28886  107.18471    23.8309 1.5936e+00     16.156     0.7268 0.0000e+00
     15.000     8.4875    30.6944   10.29145  107.23880    23.8251 1.6107e+00     15.154     0.7497 0.0000e+00
     14.000     8.4975    30.6845   10.29412  107.30872    23.8159 1.6354e+00     14.130     0.7841 0.0000e+00
     13.000     8.5136    30.6705   10.29234  107.33486    23.8032 1.6716e+00     13.102     0.6883 0.0000e+00
     12.000     8.5372    30.6443   10.29694  107.43211    23.7793 1.7218e+00     12.144     0.6777 0.0000e+00
     11.000     8.5658    30.6127   10.29975  107.49824    23.7506 1.7991e+00     11.075     0.7080 0.0000e+00
     10.000     8.5984    30.5701   10.29327  107.48866    23.7126 1.9163e+00     10.108     0.7056 0.0000e+00
      9.000     8.6239    30.5328   10.29544  107.54780    23.6792 2.1293e+00      9.094     0.7155 0.0000e+00
      8.000     8.6680    30.4683   10.26180  107.21720    23.6232 2.4358e+00      8.092     0.7082 0.0000e+00
      7.000     8.6942    30.4232   10.26700  107.28332    23.5830 2.9201e+00      7.114     0.6725 0.0000e+00
      6.000     8.7098    30.3944   10.26681  107.29502    23.5575 3.6134e+00      6.010     0.6178 0.0000e+00
      5.000     8.7173    30.3936   10.28061  107.45536    23.5559 4.7350e+00      4.992     0.6520 0.0000e+00
      4.000     8.7200    30.3899   10.35268  108.23339    23.5524 6.3778e+00      4.042     0.6408 0.0000e+00
      3.000     8.7300    30.3787   10.11677  105.87886    23.5426 8.5743e+00      3.050     0.6742 0.0000e+00
      2.000     8.7464    30.3603   10.82264  104.24459    23.5263 1.1607e+01      2.031     0.6657 0.0000e+00
      1.000     8.8052    30.3245   10.20409  102.48559    23.4923 2.0590e+01      1.076     0.6635 0.0000e+00
