* Sea-Bird SBE19plus Data File:
* FileName = C:\data\otf\2007\ctd-07143.hex
* Software Version 1.55
* Temperature SN =  5061
* Conductivity SN =  5061
* System UpLoad Time = Aug 15 2007 17:36:07
* ds
* SeacatPlus V 1.6a  SERIAL NO. 5061    15 Aug 2007  15:31:53
* vbatt = 10.9, vlith =  8.7, ioper =  61.6 ma, ipump =  57.5 ma, 
* iext01 =  95.2 ma
* iext23 =  58.1 ma
* 
* status = not logging
* number of scans to average = 1
* samples = 153039, free = 288466, casts = 154
* mode = profile, minimum cond freq = 3000, pump delay = 60 sec
* autorun = no, ignore magnetic switch = no
* battery type = alkaline, battery cutoff =  7.3 volts
* pressure sensor = strain gauge, range = 870.0
* SBE 38 = no, Gas Tension Device = no
* Ext Volt 0 = yes, Ext Volt 1 = yes, Ext Volt 2 = yes, Ext Volt 3 = yes
* echo commands = yes
* output format = raw HEX
* S>
* 
* SeacatPlus V 1.6a  SERIAL NO. 5061    15 Aug 2007  15:32:18
* temperature:  05-oct-06
*     TA0 = 1.254184e-03
*     TA1 = 2.596730e-04
*     TA2 = 5.165612e-07
*     TA3 = 1.318931e-07
*     TOFFSET = 0.000000e+00
* conductivity:  05-oct-06
*     G = -9.978144e-01
*     H = 1.555200e-01
*     I = -4.839108e-04
*     J = 6.121100e-05
*     CF0 = 2.539936e+03
*     CPCOR = -9.570000e-08
*     CTCOR = 3.250000e-06
*     CSLOPE = 1.000000e+00
* pressure S/N = 2362539, range = 870 psia:  24-aug-06
*     PA0 = 2.171091e-01
*     PA1 = 2.647085e-03
*     PA2 = 1.419397e-11
*     PTCA0 = 5.242437e+05
*     PTCA1 = 7.545345e+00
*     PTCA2 = -1.835354e-01
*     PTCB0 = 2.537125e+01
*     PTCB1 = -1.750000e-03
*     PTCB2 = 0.000000e+00
*     PTEMPA0 = -5.753989e+01
*     PTEMPA1 = 5.235813e+01
*     PTEMPA2 = -4.015521e-02
*     POFFSET = 0.000000e+00
* volt 0: offset = -4.682842e-02, slope = 1.249147e+00
* volt 1: offset = -4.695158e-02, slope = 1.248145e+00
* volt 2: offset = -4.685263e-02, slope = 1.248783e+00
* volt 3: offset = -4.690316e-02, slope = 1.249508e+00
*     EXTFREQSF = 1.000002e+00
* dh
* cast 143 28 Jul 2007 12:07:20 samples 140059 to 141252, avg = 1, stop = mag switch
* S> 
# nquan = 10
# nvalues = 167                         
# units = specified
# name 0 = depSM: Depth [salt water, m]
# name 1 = tv290C: Temperature [ITS-90, deg C]
# name 2 = sal00: Salinity [PSU]
# name 3 = sbeox0Mg/L: Oxygen, SBE 43 [mg/l]
# name 4 = sbeox0PS: Oxygen, SBE 43 [% saturation]
# name 5 = sigma-t00: Density [sigma-t, Kg/m^3 ]
# name 6 = par: PAR/Irradiance, Biospherical/Licor
# name 7 = prdM: Pressure, Strain Gauge [db]
# name 8 = flECO-AFL: Fluorescence, Wetlab ECO-AFL/FL [mg/m^3]
# name 9 = flag: flag
# span 0 =      1.000,     86.000       
# span 1 =     8.5363,     9.0240       
# span 2 =    31.3321,    31.5859       
# span 3 =    8.33609,   10.93849       
# span 4 =   88.01374,   99.05277       
# span 5 =    24.2479,    24.5156       
# span 6 = 1.5363e+00, 1.7682e+03       
# span 7 =      1.109,     86.599       
# span 8 =     0.6534,     1.0890       
# span 9 = 0.0000e+00, 0.0000e+00       
# interval = meters: 1                  
# start_time = Jul 28 2007 12:07:20
# bad_flag = -9.990e-29
# sensor 0 = Frequency 0  temperature, 5061, 05-Oct-06
# sensor 1 = Frequency 1  conductivity, 5061, 05-Oct-06, cpcor = -9.5700e-08
# sensor 2 = Pressure Number
# sensor 3 = Extrnl Volt  0  irradiance (PAR), primary, 4751, 08/10/06
# sensor 4 = Extrnl Volt  1  Oxygen, SBE, primary, 1081, 10/24/06
# sensor 5 = Extrnl Volt  2  WET Labs, ECO_AFL
# sensor 6 = Extrnl Volt  3  userpoly 0, 0627, 10/11/06
# datcnv_date = Oct 15 2007 14:49:53, 5.37e
# datcnv_in = I:\bob d\OTF_GEM\2007\ctd-07143.hex I:\Willette\OTF\CTD\5061.con
# datcnv_skipover = 0
# filter_date = Oct 15 2007 15:02:42, 5.37e
# filter_in = I:\Willette\OTF\CTD\2007\CTD Data\ctd-07143.cnv
# filter_low_pass_tc_A = 1.000
# filter_low_pass_tc_B = 0.150
# filter_low_pass_A_vars = prdM
# filter_low_pass_B_vars =
# loopedit_date = Oct 15 2007 15:07:00, 5.37e
# loopedit_in = I:\Willette\OTF\CTD\2007\CTD Data\ctd-07143.cnv
# loopedit_minVelocity = 0.250                                                                                            
# loopedit_surfaceSoak: minDepth = 5.0, maxDepth = 20, useDeckPress = 1                                                   
# loopedit_excl_bad_scans = yes
# alignctd_date = Oct 15 2007 15:14:25, 5.37e
# alignctd_in = I:\Willette\OTF\CTD\2007\CTD Data\ctd-07143.cnv
# alignctd_adv = tv290C 0.500, sbeox0Mg/L 4.000, sbeox0PS 4.000                                                                                                                                                                      
# binavg_date = Oct 15 2007 15:18:53, 5.37e
# binavg_in = I:\Willette\OTF\CTD\2007\CTD Data\ctd-07143.cnv
# binavg_bintype = meters
# binavg_binsize = 1
# binavg_excl_bad_scans = yes
# binavg_skipover = 0
# binavg_surface_bin = no, min = 0.000, max = 0.000, value = 0.000
# file_type = ascii
*END*
      5.000     8.9761    31.4184    8.33609   88.01374    24.3122 3.9199e+02      4.988     0.7569 0.0000e+00
      6.000     8.9200    31.4687    8.38833   88.51313    24.3640 3.6562e+02      6.028     0.7467 0.0000e+00
      7.000     8.8892    31.4723    8.46427   89.24821    24.3717 3.0731e+02      7.021     0.7667 0.0000e+00
      8.000     8.8536    31.4908    8.59825   90.57629    24.3921 2.5489e+02      8.114     0.7707 0.0000e+00
      9.000     8.8283    31.4742    8.65137   91.09663    24.3827 2.1701e+02      9.240     0.7614 0.0000e+00
     10.000     8.8012    31.4711    8.70162   91.62031    24.3844 1.9274e+02     10.153     0.8044 0.0000e+00
     11.000     8.7700    31.4741    8.75611   92.18277    24.3906 1.6050e+02     11.187     0.8278 0.0000e+00
     12.000     8.7486    31.4770    8.80650   92.70037    24.3975 1.3383e+02     12.158     0.9086 0.0000e+00
     13.000     8.7442    31.4828    8.81889   92.81983    24.4037 1.1634e+02     13.164     1.0427 0.0000e+00
     14.000     8.7430    31.4782    8.83871   92.98730    24.4005 9.2299e+01     14.190     1.0368 0.0000e+00
     15.000     8.7408    31.4703    8.86049   93.19688    24.3944 7.6378e+01     15.134     1.0890 0.0000e+00
     16.000     8.7324    31.4706    8.86373   93.22994    24.3956 6.4892e+01     16.127     1.0706 0.0000e+00
     17.000     8.7300    31.4736    8.87682   93.36075    24.3988 5.4743e+01     17.154     1.0622 0.0000e+00
     18.000     8.7156    31.4646    8.89577   93.54724    24.3921 4.6055e+01     18.125     1.0285 0.0000e+00
     19.000     8.6976    31.4738    8.90195   93.60505    24.4028 3.8712e+01     19.160     1.0154 0.0000e+00
     20.000     8.6971    31.4780    8.92838   93.86757    24.4075 3.2516e+01     20.205     0.9983 0.0000e+00
     21.000     8.6939    31.4740    8.96150   94.21526    24.4043 2.7795e+01     21.180     1.0001 0.0000e+00
     22.000     8.6872    31.4726    9.01094   94.73723    24.4039 2.3307e+01     22.200     0.9750 0.0000e+00
     23.000     8.6842    31.4747    9.05399   95.18510    24.4064 1.9691e+01     23.235     0.9501 0.0000e+00
     24.000     8.6815    31.4707    9.08403   95.49813    24.4037 1.6739e+01     24.206     0.9375 0.0000e+00
     25.000     8.6826    31.4536    9.11000   95.75924    24.3905 1.4296e+01     25.222     0.9240 0.0000e+00
     26.000     8.6838    31.4529    9.12974   95.94898    24.3897 1.2230e+01     26.244     0.9222 0.0000e+00
     27.000     8.6818    31.4513    9.14359   96.09303    24.3885 1.0453e+01     27.266     0.9360 0.0000e+00
     28.000     8.6805    31.4519    9.15198   96.17674    24.3894 9.0155e+00     28.257     0.9237 0.0000e+00
     29.000     8.6742    31.4482    9.16139   96.27051    24.3864 7.7779e+00     29.264     0.9155 0.0000e+00
     30.000     8.6648    31.4537    9.16993   96.35652    24.3926 6.7745e+00     30.231     0.9078 0.0000e+00
     31.000     8.6646    31.4573    9.17715   96.43122    24.3960 5.9015e+00     31.296     0.8964 0.0000e+00
     32.000     8.6617    31.4565    9.18923   96.55262    24.3955 5.2120e+00     32.299     0.8794 0.0000e+00
     33.000     8.6595    31.4588    9.19375   96.58736    24.3978 4.6091e+00     33.257     0.8710 0.0000e+00
     34.000     8.6558    31.4607    9.19641   96.59878    24.3997 4.0778e+00     34.275     0.8827 0.0000e+00
     35.000     8.6576    31.4621    9.20579   96.66314    24.4009 3.6466e+00     35.420     0.8499 0.0000e+00
     36.000     8.6483    31.4645    9.21055   96.70737    24.4032 3.3136e+00     36.341     0.8470 0.0000e+00
     37.000     8.6408    31.4722    9.21300   96.72787    24.4105 3.0131e+00     37.339     0.8616 0.0000e+00
     38.000     8.6214    31.4898    9.21543   96.75096    24.4262 2.7603e+00     38.346     0.8572 0.0000e+00
     39.000     8.6097    31.5087    9.22050   96.80206    24.4438 2.5404e+00     39.324     0.8475 0.0000e+00
     40.000     8.6052    31.5158    9.22963   96.89317    24.4503 2.3455e+00     40.394     0.8268 0.0000e+00
     41.000     8.6027    31.5196    9.23792   96.97900    24.4538 2.1982e+00     41.476     0.8393 0.0000e+00
     42.000     8.6015    31.5212    9.23740   96.97167    24.4553 2.0760e+00     42.367     0.8590 0.0000e+00
     43.000     8.5982    31.5255    9.23639   96.95166    24.4590 1.9701e+00     43.401     0.8574 0.0000e+00
     44.000     8.5970    31.5281    9.23698   96.95541    24.4614 1.8888e+00     44.403     0.8457 0.0000e+00
     45.000     8.5957    31.5297    9.24349   97.01754    24.4627 1.8196e+00     45.375     0.8221 0.0000e+00
     46.000     8.5901    31.5349    9.25058   97.08055    24.4673 1.7621e+00     46.478     0.8217 0.0000e+00
     47.000     8.5860    31.5421    9.25509   97.11801    24.4739 1.7180e+00     47.511     0.8241 0.0000e+00
     48.000     8.5841    31.5423    9.26339   97.19966    24.4742 1.6831e+00     48.425     0.8350 0.0000e+00
     49.000     8.5789    31.5470    9.26395   97.19959    24.4786 1.6533e+00     49.476     0.8425 0.0000e+00
     50.000     8.5717    31.5533    9.26127   97.17192    24.4845 1.6313e+00     50.486     0.8324 0.0000e+00
     51.000     8.5690    31.5573    9.25517   97.10655    24.4883 1.6121e+00     51.411     0.8200 0.0000e+00
     52.000     8.5629    31.5616    9.26077   97.16091    24.4924 1.5964e+00     52.518     0.8309 0.0000e+00
     53.000     8.5633    31.5630    9.26312   97.18357    24.4938 1.5855e+00     53.546     0.8230 0.0000e+00
     54.000     8.5629    31.5632    9.27057   97.26068    24.4940 1.5763e+00     54.487     0.8397 0.0000e+00
     55.000     8.5605    31.5644    9.26955   97.24904    24.4951 1.5690e+00     55.526     0.8256 0.0000e+00
     56.000     8.5593    31.5660    9.26651   97.21666    24.4966 1.5641e+00     56.514     0.8147 0.0000e+00
     57.000     8.5582    31.5670    9.27054   97.25648    24.4977 1.5593e+00     57.549     0.8092 0.0000e+00
     58.000     8.5576    31.5674    9.27187   97.26174    24.4981 1.5563e+00     58.594     0.8026 0.0000e+00
     59.000     8.5573    31.5676    9.27522   97.29404    24.4983 1.5533e+00     59.572     0.8087 0.0000e+00
     60.000     8.5569    31.5680    9.28055   97.34870    24.4986 1.5509e+00     60.597     0.8191 0.0000e+00
     61.000     8.5524    31.5697    9.28311   97.37685    24.5002 1.5494e+00     61.583     0.8146 0.0000e+00
     62.000     8.5497    31.5737    9.27892   97.33456    24.5041 1.5484e+00     62.595     0.8055 0.0000e+00
     63.000     8.5481    31.5753    9.27773   97.32251    24.5056 1.5473e+00     63.575     0.8036 0.0000e+00
     64.000     8.5486    31.5756    9.27970   97.34338    24.5059 1.5467e+00     64.599     0.8149 0.0000e+00
     65.000     8.5498    31.5743    9.28308   97.37907    24.5047 1.5459e+00     65.663     0.8191 0.0000e+00
     66.000     8.5500    31.5742    9.28999   97.45176    24.5046 1.5452e+00     66.630     0.7974 0.0000e+00
     67.000     8.5503    31.5739    9.29379   97.49074    24.5043 1.5451e+00     67.655     0.7944 0.0000e+00
     68.000     8.5503    31.5738    9.29664   97.52052    24.5042 1.5447e+00     68.627     0.8124 0.0000e+00
     69.000     8.5504    31.5741    9.29803   97.53427    24.5044 1.5445e+00     69.644     0.8136 0.0000e+00
     70.000     8.5501    31.5744    9.29732   97.52599    24.5046 1.5443e+00     70.681     0.8066 0.0000e+00
     71.000     8.5500    31.5742    9.29961   97.54806    24.5045 1.5443e+00     71.706     0.8055 0.0000e+00
     72.000     8.5496    31.5746    9.29903   97.54083    24.5049 1.5443e+00     72.654     0.8199 0.0000e+00
     73.000     8.5488    31.5751    9.29868   97.53543    24.5054 1.5440e+00     73.718     0.8167 0.0000e+00
     74.000     8.5487    31.5751    9.29884   97.53726    24.5054 1.5438e+00     74.713     0.8249 0.0000e+00
     75.000     8.5472    31.5764    9.29595   97.50641    24.5066 1.5437e+00     75.653     0.8200 0.0000e+00
     76.000     8.5461    31.5773    9.29512   97.49360    24.5075 1.5438e+00     76.765     0.8024 0.0000e+00
     77.000     8.5460    31.5776    9.29750   97.51349    24.5078 1.5436e+00     77.715     0.8311 0.0000e+00
     78.000     8.5459    31.5778    9.29842   97.52193    24.5080 1.5437e+00     78.762     0.8310 0.0000e+00
     79.000     8.5436    31.5790    9.30320   97.57075    24.5091 1.5439e+00     79.761     0.8228 0.0000e+00
     80.000     8.5407    31.5806    9.30408   97.57956    24.5107 1.5439e+00     80.705     0.8227 0.0000e+00
     81.000     8.5398    31.5822    9.29926   97.52593    24.5123 1.5440e+00     81.771     0.8536 0.0000e+00
     82.000     8.5389    31.5833    9.29644   97.49524    24.5133 1.5437e+00     82.771     0.8278 0.0000e+00
     83.000     8.5383    31.5837    9.29933   97.52647    24.5136 1.5439e+00     83.843     0.8390 0.0000e+00
     84.000     8.5368    31.5847    9.29218   97.45352    24.5146 1.5436e+00     84.700     0.8463 0.0000e+00
     85.000     8.5363    31.5857    9.29035   97.43229    24.5156 1.5438e+00     85.703     0.8595 0.0000e+00
     86.000     8.5381    31.5859    9.29641   97.49431    24.5156 1.5363e+00     86.599     0.8853 0.0000e+00
     85.000     8.5391    31.5856    9.29980   97.53277    24.5151 1.5438e+00     85.767     0.8991 0.0000e+00
     84.000     8.5372    31.5854    9.29862   97.52521    24.5152 1.5438e+00     84.796     0.8407 0.0000e+00
     83.000     8.5376    31.5855    9.30142   97.55578    24.5153 1.5437e+00     83.751     0.8760 0.0000e+00
     82.000     8.5399    31.5847    9.30532   97.60115    24.5144 1.5439e+00     82.792     0.9468 0.0000e+00
     81.000     8.5406    31.5836    9.30560   97.61158    24.5133 1.5436e+00     81.791     0.9256 0.0000e+00
     80.000     8.5432    31.5818    9.30682   97.62522    24.5117 1.5439e+00     80.753     0.8948 0.0000e+00
     79.000     8.5475    31.5791    9.30539   97.61174    24.5089 1.5440e+00     79.777     0.8576 0.0000e+00
     78.000     8.5483    31.5770    9.30852   97.64358    24.5070 1.5441e+00     78.756     0.8722 0.0000e+00
     77.000     8.5492    31.5765    9.31171   97.67633    24.5065 1.5442e+00     77.739     0.8497 0.0000e+00
     76.000     8.5486    31.5762    9.30979   97.65623    24.5063 1.5438e+00     76.721     0.8403 0.0000e+00
     75.000     8.5483    31.5761    9.31422   97.70318    24.5063 1.5440e+00     75.760     0.8488 0.0000e+00
     74.000     8.5483    31.5768    9.31497   97.71254    24.5069 1.5438e+00     74.663     0.8492 0.0000e+00
     73.000     8.5487    31.5760    9.32004   97.76367    24.5061 1.5442e+00     73.733     0.8300 0.0000e+00
     72.000     8.5495    31.5754    9.32088   97.77394    24.5056 1.5442e+00     72.663     0.8796 0.0000e+00
     71.000     8.5485    31.5754    9.32020   97.76699    24.5056 1.5445e+00     71.702     0.8495 0.0000e+00
     70.000     8.5494    31.5754    9.32093   97.77485    24.5056 1.5445e+00     70.642     0.8277 0.0000e+00
     69.000     8.5496    31.5747    9.32032   97.76877    24.5050 1.5445e+00     69.702     0.8165 0.0000e+00
     68.000     8.5496    31.5743    9.31821   97.74603    24.5047 1.5450e+00     68.642     0.8347 0.0000e+00
     67.000     8.5499    31.5745    9.31797   97.74259    24.5048 1.5451e+00     67.612     0.8282 0.0000e+00
     66.000     8.5496    31.5742    9.32489   97.81645    24.5046 1.5457e+00     66.674     0.8472 0.0000e+00
     65.000     8.5491    31.5745    9.31658   97.73048    24.5049 1.5463e+00     65.612     0.8925 0.0000e+00
     64.000     8.5501    31.5742    9.32381   97.80519    24.5046 1.5468e+00     64.606     0.8286 0.0000e+00
     63.000     8.5505    31.5732    9.32306   97.79862    24.5037 1.5479e+00     63.622     0.8235 0.0000e+00
     62.000     8.5502    31.5736    9.32436   97.81197    24.5041 1.5491e+00     62.600     0.8347 0.0000e+00
     61.000     8.5508    31.5728    9.32135   97.78243    24.5034 1.5504e+00     61.574     0.8426 0.0000e+00
     60.000     8.5507    31.5726    9.32241   97.79590    24.5032 1.5520e+00     60.567     0.8511 0.0000e+00
     59.000     8.5521    31.5717    9.32684   97.84197    24.5023 1.5543e+00     59.575     0.8232 0.0000e+00
     58.000     8.5532    31.5707    9.32876   97.86245    24.5013 1.5572e+00     58.540     0.8229 0.0000e+00
     57.000     8.5532    31.5702    9.32236   97.79919    24.5010 1.5608e+00     57.527     0.8322 0.0000e+00
     56.000     8.5533    31.5701    9.32411   97.82202    24.5008 1.5654e+00     56.549     0.8771 0.0000e+00
     55.000     8.5557    31.5690    9.31578   97.74241    24.4997 1.5710e+00     55.511     0.8474 0.0000e+00
     54.000     8.5583    31.5666    9.31907   97.78622    24.4975 1.5785e+00     54.543     0.8474 0.0000e+00
     53.000     8.5638    31.5632    9.31157   97.71313    24.4942 1.5879e+00     53.502     0.8384 0.0000e+00
     52.000     8.5693    31.5574    9.31779   97.78455    24.4887 1.6004e+00     52.505     0.8522 0.0000e+00
     51.000     8.5729    31.5542    9.31902   97.80013    24.4856 1.6159e+00     51.480     0.8583 0.0000e+00
     50.000     8.5756    31.5518    9.31828   97.79529    24.4832 1.6346e+00     50.487     0.8414 0.0000e+00
     49.000     8.5775    31.5495    9.31301   97.74599    24.4812 1.6591e+00     49.447     0.8490 0.0000e+00
     48.000     8.5790    31.5485    9.31651   97.79249    24.4802 1.6890e+00     48.422     0.8225 0.0000e+00
     47.000     8.5829    31.5449    9.31521   97.78604    24.4769 1.7253e+00     47.417     0.8423 0.0000e+00
     46.000     8.5881    31.5393    9.31661   97.80731    24.4718 1.7702e+00     46.440     0.8692 0.0000e+00
     45.000     8.5925    31.5339    9.32047   97.85466    24.4669 1.8247e+00     45.404     0.8672 0.0000e+00
     44.000     8.5974    31.5283    9.31876   97.84169    24.4618 1.8922e+00     44.481     0.8438 0.0000e+00
     43.000     8.6025    31.5209    9.31943   97.85400    24.4552 1.9750e+00     43.452     0.8384 0.0000e+00
     42.000     8.6077    31.5140    9.31978   97.86591    24.4490 2.0757e+00     42.409     0.8629 0.0000e+00
     41.000     8.6129    31.5070    9.31506   97.82874    24.4428 2.1977e+00     41.394     0.8392 0.0000e+00
     40.000     8.6185    31.5009    9.31495   97.83582    24.4372 2.3423e+00     40.423     0.8458 0.0000e+00
     39.000     8.6283    31.4892    9.30923   97.77902    24.4266 2.5115e+00     39.324     0.8397 0.0000e+00
     38.000     8.6322    31.4837    9.31396   97.83443    24.4216 2.7129e+00     38.362     0.8543 0.0000e+00
     37.000     8.6331    31.4828    9.30996   97.80432    24.4207 2.9624e+00     37.351     0.8476 0.0000e+00
     36.000     8.6394    31.4779    9.31901   97.91995    24.4162 3.2597e+00     36.269     0.8396 0.0000e+00
     35.000     8.6434    31.4730    9.31932   97.92433    24.4117 3.6094e+00     35.331     0.8592 0.0000e+00
     34.000     8.6550    31.4622    9.31888   97.92493    24.4017 4.0316e+00     34.351     0.8703 0.0000e+00
     33.000     8.6574    31.4580    9.31850   97.92747    24.3976 4.5251e+00     33.304     0.8526 0.0000e+00
     32.000     8.6609    31.4541    9.30418   97.77560    24.3941 5.1232e+00     32.311     0.8812 0.0000e+00
     31.000     8.6645    31.4524    9.31368   97.88443    24.3922 5.8348e+00     31.256     0.8688 0.0000e+00
     30.000     8.6638    31.4511    9.31801   97.93513    24.3912 6.6585e+00     30.235     0.8701 0.0000e+00
     29.000     8.6667    31.4507    9.31384   97.89363    24.3907 7.6582e+00     29.258     0.8525 0.0000e+00
     28.000     8.6706    31.4488    9.31612   97.92403    24.3886 8.8877e+00     28.350     0.8665 0.0000e+00
     27.000     8.6719    31.4474    9.32065   97.96943    24.3872 1.0332e+01     27.291     0.8655 0.0000e+00
     26.000     8.6757    31.4463    9.31667   97.92684    24.3859 1.2034e+01     26.283     0.8823 0.0000e+00
     25.000     8.6749    31.4444    9.31825   97.94756    24.3842 1.4107e+01     25.223     0.8973 0.0000e+00
     24.000     8.6754    31.4440    9.32255   97.99879    24.3840 1.6619e+01     24.230     0.8690 0.0000e+00
     23.000     8.6775    31.4441    9.32597   98.04166    24.3838 1.9336e+01     23.184     0.8642 0.0000e+00
     22.000     8.6802    31.4432    9.31993   97.98957    24.3827 2.2593e+01     22.210     0.8788 0.0000e+00
     21.000     8.6831    31.4428    9.32355   98.03455    24.3819 2.6578e+01     21.158     0.8872 0.0000e+00
     20.000     8.6882    31.4423    9.32556   98.06990    24.3810 3.1182e+01     20.204     0.9260 0.0000e+00
     19.000     8.6912    31.4407    9.32718   98.08968    24.3791 3.6814e+01     19.177     0.9339 0.0000e+00
     18.000     8.6971    31.4410    9.32530   98.07967    24.3787 4.3214e+01     18.139     0.9422 0.0000e+00
     17.000     8.7009    31.4387    9.33120   98.15957    24.3759 5.1672e+01     17.200     0.9428 0.0000e+00
     16.000     8.7021    31.4401    9.32658   98.14441    24.3772 6.1146e+01     16.184     0.9308 0.0000e+00
     15.000     8.7134    31.4392    9.33199   98.22748    24.3749 7.2694e+01     15.115     0.9838 0.0000e+00
     14.000     8.7289    31.4401    9.34058   98.31759    24.3738 8.6711e+01     14.169     1.0059 0.0000e+00
     13.000     8.7413    31.4342    9.33935   98.29156    24.3667 1.0413e+02     13.112     1.0529 0.0000e+00
     12.000     8.7401    31.4311    9.33998   98.31210    24.3639 1.2410e+02     12.130     1.0232 0.0000e+00
     11.000     8.7343    31.4340    9.34017   98.37236    24.3672 1.4867e+02     11.095     0.9272 0.0000e+00
     10.000     8.7416    31.4352    9.34680   98.50798    24.3675 1.7933e+02     10.110     0.8869 0.0000e+00
      9.000     8.7779    31.4335    9.35455   98.59238    24.3619 2.1592e+02      9.092     0.8628 0.0000e+00
      8.000     8.8030    31.4191    9.35260   98.57870    24.3455 2.5711e+02      8.046     0.8729 0.0000e+00
      7.000     8.8018    31.4178    9.35518   98.62064    24.3444 3.1335e+02      7.067     0.8534 0.0000e+00
      6.000     8.8053    31.4191    9.35015   98.59769    24.3452 3.8412e+02      6.021     0.8395 0.0000e+00
      5.000     8.8113    31.4178    9.33957   98.59164    24.3433 4.6375e+02      5.048     0.8111 0.0000e+00
      4.000     8.8231    31.4154    9.33980   98.73669    24.3400 5.7174e+02      4.043     0.7743 0.0000e+00
      3.000     8.8688    31.4153    9.42756   99.05277    24.3353 7.0968e+02      3.020     0.7705 0.0000e+00
      2.000     8.9396    31.3866   10.93849   98.95336    24.3029 7.5177e+02      2.032     0.7349 0.0000e+00
      1.000     9.0240    31.3321   10.25837   97.94919    24.2479 1.7682e+03      1.109     0.6534 0.0000e+00
