* Sea-Bird SBE19plus Data File:
* FileName = C:\data\otf\2007\ctd-07006.hex
* Software Version 1.55
* Temperature SN =  5061
* Conductivity SN =  5061
* System UpLoad Time = Aug 15 2007 15:35:58
* ds
* SeacatPlus V 1.6a  SERIAL NO. 5061    15 Aug 2007  15:31:53
* vbatt = 10.9, vlith =  8.7, ioper =  61.6 ma, ipump =  57.5 ma, 
* iext01 =  95.2 ma
* iext23 =  58.1 ma
* 
* status = not logging
* number of scans to average = 1
* samples = 153039, free = 288466, casts = 154
* mode = profile, minimum cond freq = 3000, pump delay = 60 sec
* autorun = no, ignore magnetic switch = no
* battery type = alkaline, battery cutoff =  7.3 volts
* pressure sensor = strain gauge, range = 870.0
* SBE 38 = no, Gas Tension Device = no
* Ext Volt 0 = yes, Ext Volt 1 = yes, Ext Volt 2 = yes, Ext Volt 3 = yes
* echo commands = yes
* output format = raw HEX
* S>
* 
* SeacatPlus V 1.6a  SERIAL NO. 5061    15 Aug 2007  15:32:18
* temperature:  05-oct-06
*     TA0 = 1.254184e-03
*     TA1 = 2.596730e-04
*     TA2 = 5.165612e-07
*     TA3 = 1.318931e-07
*     TOFFSET = 0.000000e+00
* conductivity:  05-oct-06
*     G = -9.978144e-01
*     H = 1.555200e-01
*     I = -4.839108e-04
*     J = 6.121100e-05
*     CF0 = 2.539936e+03
*     CPCOR = -9.570000e-08
*     CTCOR = 3.250000e-06
*     CSLOPE = 1.000000e+00
* pressure S/N = 2362539, range = 870 psia:  24-aug-06
*     PA0 = 2.171091e-01
*     PA1 = 2.647085e-03
*     PA2 = 1.419397e-11
*     PTCA0 = 5.242437e+05
*     PTCA1 = 7.545345e+00
*     PTCA2 = -1.835354e-01
*     PTCB0 = 2.537125e+01
*     PTCB1 = -1.750000e-03
*     PTCB2 = 0.000000e+00
*     PTEMPA0 = -5.753989e+01
*     PTEMPA1 = 5.235813e+01
*     PTEMPA2 = -4.015521e-02
*     POFFSET = 0.000000e+00
* volt 0: offset = -4.682842e-02, slope = 1.249147e+00
* volt 1: offset = -4.695158e-02, slope = 1.248145e+00
* volt 2: offset = -4.685263e-02, slope = 1.248783e+00
* volt 3: offset = -4.690316e-02, slope = 1.249508e+00
*     EXTFREQSF = 1.000002e+00
* dh
* cast   6 03 Jul 2007 11:01:50 samples 4172 to 5572, avg = 1, stop = mag switch
* S> 
# nquan = 10
# nvalues = 133                         
# units = specified
# name 0 = depSM: Depth [salt water, m]
# name 1 = tv290C: Temperature [ITS-90, deg C]
# name 2 = sal00: Salinity [PSU]
# name 3 = sbeox0Mg/L: Oxygen, SBE 43 [mg/l]
# name 4 = sbeox0PS: Oxygen, SBE 43 [% saturation]
# name 5 = sigma-t00: Density [sigma-t, Kg/m^3 ]
# name 6 = par: PAR/Irradiance, Biospherical/Licor
# name 7 = prdM: Pressure, Strain Gauge [db]
# name 8 = flECO-AFL: Fluorescence, Wetlab ECO-AFL/FL [mg/m^3]
# name 9 = flag: flag
# span 0 =      1.000,     69.000       
# span 1 =     7.5590,     8.7565       
# span 2 =    30.4369,    31.7791       
# span 3 =    8.44333,   10.96644       
# span 4 =   87.98697,  108.19197       
# span 5 =    23.5896,    24.8063       
# span 6 = 1.5491e+00, 1.0906e+03       
# span 7 =      1.128,     69.319       
# span 8 =     0.5340,     1.7156       
# span 9 = 0.0000e+00, 0.0000e+00       
# interval = meters: 1                  
# start_time = Jul 03 2007 11:01:50
# bad_flag = -9.990e-29
# sensor 0 = Frequency 0  temperature, 5061, 05-Oct-06
# sensor 1 = Frequency 1  conductivity, 5061, 05-Oct-06, cpcor = -9.5700e-08
# sensor 2 = Pressure Number
# sensor 3 = Extrnl Volt  0  irradiance (PAR), primary, 4751, 08/10/06
# sensor 4 = Extrnl Volt  1  Oxygen, SBE, primary, 1081, 10/24/06
# sensor 5 = Extrnl Volt  2  WET Labs, ECO_AFL
# sensor 6 = Extrnl Volt  3  userpoly 0, 0627, 10/11/06
# datcnv_date = Oct 15 2007 14:49:41, 5.37e
# datcnv_in = I:\bob d\OTF_GEM\2007\ctd-07006.hex I:\Willette\OTF\CTD\5061.con
# datcnv_skipover = 0
# filter_date = Oct 15 2007 15:02:17, 5.37e
# filter_in = I:\Willette\OTF\CTD\2007\CTD Data\ctd-07006.cnv
# filter_low_pass_tc_A = 1.000
# filter_low_pass_tc_B = 0.150
# filter_low_pass_A_vars = prdM
# filter_low_pass_B_vars =
# loopedit_date = Oct 15 2007 15:06:41, 5.37e
# loopedit_in = I:\Willette\OTF\CTD\2007\CTD Data\ctd-07006.cnv
# loopedit_minVelocity = 0.250                                                                                            
# loopedit_surfaceSoak: minDepth = 5.0, maxDepth = 20, useDeckPress = 1                                                   
# loopedit_excl_bad_scans = yes
# alignctd_date = Oct 15 2007 15:14:11, 5.37e
# alignctd_in = I:\Willette\OTF\CTD\2007\CTD Data\ctd-07006.cnv
# alignctd_adv = tv290C 0.500, sbeox0Mg/L 4.000, sbeox0PS 4.000                                                                                                                                                                      
# binavg_date = Oct 15 2007 15:18:40, 5.37e
# binavg_in = I:\Willette\OTF\CTD\2007\CTD Data\ctd-07006.cnv
# binavg_bintype = meters
# binavg_binsize = 1
# binavg_excl_bad_scans = yes
# binavg_skipover = 0
# binavg_surface_bin = no, min = 0.000, max = 0.000, value = 0.000
# file_type = ascii
*END*
      5.000     8.6549    30.4945    8.88392   92.78894    23.6418 1.5562e+02      4.960     0.7487 0.0000e+00
      6.000     8.6294    30.5892    8.68258   90.68973    23.7208 1.0712e+02      6.126     0.8344 0.0000e+00
      7.000     8.6078    30.6784    8.66540   90.49201    23.7938 7.8684e+01      7.029     0.7996 0.0000e+00
      8.000     8.6011    30.7188    8.59847   89.74925    23.8270 5.6282e+01      8.086     0.7425 0.0000e+00
      9.000     8.5839    30.7423    9.39663   98.03052    23.8468 4.2527e+01      9.089     0.7655 0.0000e+00
     10.000     8.5441    30.8052    8.77914   91.52126    23.9015 3.1912e+01     10.080     0.7936 0.0000e+00
     11.000     8.4983    30.8806    8.44333   87.98697    23.9670 2.4390e+01     11.138     0.7916 0.0000e+00
     12.000     8.4519    30.9384    8.51564   88.70589    24.0191 1.9329e+01     12.055     0.8112 0.0000e+00
     13.000     8.4258    30.9843    8.59598   89.47595    24.0598 1.5152e+01     13.148     0.8249 0.0000e+00
     14.000     8.3961    31.0149    8.96011   93.22475    24.0880 1.2281e+01     14.087     0.8211 0.0000e+00
     15.000     8.3455    31.0586    9.24720   96.14911    24.1289 9.9073e+00     15.181     0.8405 0.0000e+00
     16.000     8.3127    31.1066    9.38020   97.52053    24.1714 8.1923e+00     16.166     0.9066 0.0000e+00
     17.000     8.2718    31.1704    9.47633   98.45726    24.2274 6.7942e+00     17.130     0.9033 0.0000e+00
     18.000     8.2447    31.2332    9.63658  100.04784    24.2807 5.7093e+00     18.246     0.9452 0.0000e+00
     19.000     8.1798    31.3557    9.71973  100.87086    24.3842 4.9350e+00     19.126     1.1266 0.0000e+00
     20.000     8.1301    31.4587    9.82519  101.90547    24.4754 4.2871e+00     20.269     1.3581 0.0000e+00
     21.000     8.1006    31.4799    9.88425  102.39580    24.4946 3.7686e+00     21.170     1.4673 0.0000e+00
     22.000     8.0631    31.5206    9.93962  102.94424    24.5316 3.3430e+00     22.231     1.4613 0.0000e+00
     23.000     7.9944    31.5741    9.98816  103.28679    24.5834 3.0000e+00     23.209     1.4676 0.0000e+00
     24.000     7.9828    31.5854   10.02695  103.55880    24.5948 2.7149e+00     24.255     1.5564 0.0000e+00
     25.000     7.8945    31.6163   10.05011  103.77756    24.6277 2.5157e+00     25.210     1.5237 0.0000e+00
     26.000     7.8417    31.6723   10.07675  104.02037    24.6830 2.3510e+00     26.250     1.6018 0.0000e+00
     27.000     7.8300    31.6836   10.09505  104.11839    24.6942 2.2240e+00     27.256     1.5975 0.0000e+00
     28.000     7.8174    31.6809   10.10920  104.17185    24.6926 2.0989e+00     28.256     1.5412 0.0000e+00
     29.000     7.7675    31.7031   10.12041  104.16694    24.7169 2.0280e+00     29.261     1.5199 0.0000e+00
     30.000     7.7190    31.7242   10.12178  104.14416    24.7400 1.9538e+00     30.286     1.4922 0.0000e+00
     31.000     7.6634    31.7491   10.12867  104.22015    24.7677 1.8928e+00     31.294     1.5798 0.0000e+00
     32.000     7.6554    31.7621   10.13716  104.29500    24.7805 1.8401e+00     32.291     1.5336 0.0000e+00
     33.000     7.6536    31.7608   10.14183  104.34433    24.7795 1.7928e+00     33.328     1.4882 0.0000e+00
     34.000     7.6499    31.7634   10.15303  104.46282    24.7822 1.7552e+00     34.296     1.4571 0.0000e+00
     35.000     7.6515    31.7632   10.16730  104.61547    24.7819 1.7269e+00     35.348     1.6060 0.0000e+00
     36.000     7.6548    31.7611   10.17601  104.68522    24.7799 1.7024e+00     36.339     1.4724 0.0000e+00
     37.000     7.6523    31.7593   10.18549  104.77318    24.7785 1.6796e+00     37.348     1.4386 0.0000e+00
     38.000     7.6432    31.7619   10.19223  104.84596    24.7817 1.6597e+00     38.367     1.4625 0.0000e+00
     39.000     7.6426    31.7635   10.19691  104.89726    24.7833 1.6424e+00     39.365     1.5120 0.0000e+00
     40.000     7.6448    31.7632   10.19961  104.92296    24.7828 1.6273e+00     40.351     1.4393 0.0000e+00
     41.000     7.6459    31.7620   10.20770  104.99445    24.7816 1.6142e+00     41.413     1.5879 0.0000e+00
     42.000     7.6420    31.7616   10.21151  105.04244    24.7817 1.6039e+00     42.396     1.4263 0.0000e+00
     43.000     7.6400    31.7649   10.21869  105.12923    24.7849 1.5956e+00     43.412     1.4539 0.0000e+00
     44.000     7.6465    31.7644   10.22502  105.19518    24.7837 1.5884e+00     44.423     1.5247 0.0000e+00
     45.000     7.6491    31.7623   10.23340  105.28734    24.7814 1.5821e+00     45.424     1.5349 0.0000e+00
     46.000     7.6503    31.7628   10.24003  105.35059    24.7818 1.5769e+00     46.445     1.4902 0.0000e+00
     47.000     7.6506    31.7615   10.24587  105.39115    24.7805 1.5728e+00     47.445     1.4906 0.0000e+00
     48.000     7.6462    31.7628   10.25173  105.36580    24.7821 1.5687e+00     48.464     1.5319 0.0000e+00
     49.000     7.6286    31.7589   10.23717  105.15720    24.7805 1.5658e+00     49.471     1.4681 0.0000e+00
     50.000     7.5914    31.7661   10.22733  105.07215    24.7914 1.5630e+00     50.458     1.4167 0.0000e+00
     51.000     7.5784    31.7771   10.21776  104.95927    24.8031 1.5603e+00     51.518     1.3760 0.0000e+00
     52.000     7.5866    31.7727   10.21836  104.94306    24.7982 1.5587e+00     52.480     1.4402 0.0000e+00
     53.000     7.5698    31.7743   10.21840  104.94478    24.8015 1.5567e+00     53.513     1.3733 0.0000e+00
     54.000     7.5699    31.7772   10.22070  104.97975    24.8042 1.5556e+00     54.531     1.3628 0.0000e+00
     55.000     7.5726    31.7774   10.22383  105.00621    24.8041 1.5543e+00     55.497     1.4037 0.0000e+00
     56.000     7.5739    31.7760   10.22767  105.04424    24.8026 1.5535e+00     56.558     1.4128 0.0000e+00
     57.000     7.5716    31.7765   10.22896  105.07169    24.8033 1.5528e+00     57.552     1.3575 0.0000e+00
     58.000     7.5741    31.7776   10.22931  105.07310    24.8040 1.5519e+00     58.557     1.4354 0.0000e+00
     59.000     7.5789    31.7760   10.23313  105.09456    24.8020 1.5514e+00     59.570     1.3032 0.0000e+00
     60.000     7.5727    31.7743   10.23642  105.11224    24.8011 1.5509e+00     60.541     1.4018 0.0000e+00
     61.000     7.5669    31.7760   10.23281  105.06651    24.8034 1.5505e+00     61.596     1.3269 0.0000e+00
     62.000     7.5590    31.7774   10.23119  105.05133    24.8057 1.5504e+00     62.580     1.3374 0.0000e+00
     63.000     7.5595    31.7776   10.23476  105.08649    24.8059 1.5498e+00     63.603     1.3454 0.0000e+00
     64.000     7.5597    31.7774   10.24205  105.17157    24.8056 1.5497e+00     64.653     1.3435 0.0000e+00
     65.000     7.5596    31.7782   10.23868  105.14421    24.8063 1.5495e+00     65.611     1.2933 0.0000e+00
     66.000     7.5678    31.7785   10.24186  105.17545    24.8057 1.5494e+00     66.614     1.3187 0.0000e+00
     67.000     7.5631    31.7764   10.24633  105.23233    24.8044 1.5495e+00     67.654     1.3534 0.0000e+00
     68.000     7.5695    31.7772   10.24668  105.23663    24.8042 1.5492e+00     68.613     1.3928 0.0000e+00
     69.000     7.5713    31.7767   10.23251  105.12130    24.8035 1.5491e+00     69.319     1.5085 0.0000e+00
     68.000     7.5738    31.7783   10.24110  105.18295    24.8048 1.5493e+00     68.529     1.3571 0.0000e+00
     67.000     7.5796    31.7774   10.24443  105.20949    24.8032 1.5492e+00     67.616     1.4772 0.0000e+00
     66.000     7.5792    31.7750   10.23647  105.12506    24.8010 1.5492e+00     66.606     1.4601 0.0000e+00
     65.000     7.5694    31.7724   10.22775  105.02634    24.7999 1.5494e+00     65.641     1.5098 0.0000e+00
     64.000     7.5689    31.7770   10.23288  105.07526    24.8041 1.5495e+00     64.618     1.3516 0.0000e+00
     63.000     7.5668    31.7753   10.23518  105.10565    24.8029 1.5499e+00     63.593     1.3888 0.0000e+00
     62.000     7.5631    31.7759   10.23593  105.12169    24.8038 1.5501e+00     62.612     1.3546 0.0000e+00
     61.000     7.5630    31.7770   10.24431  105.20125    24.8050 1.5505e+00     61.590     1.4215 0.0000e+00
     60.000     7.5674    31.7782   10.24484  105.19767    24.8054 1.5510e+00     60.567     1.3049 0.0000e+00
     59.000     7.5685    31.7761   10.24094  105.15694    24.8034 1.5513e+00     59.606     1.3684 0.0000e+00
     58.000     7.5637    31.7754   10.24395  105.19824    24.8033 1.5515e+00     58.536     1.4534 0.0000e+00
     57.000     7.5613    31.7763   10.24179  105.17349    24.8046 1.5527e+00     57.578     1.2852 0.0000e+00
     56.000     7.5651    31.7776   10.23508  105.11898    24.8052 1.5538e+00     56.588     1.5741 0.0000e+00
     55.000     7.5655    31.7767   10.23943  105.21974    24.8044 1.5549e+00     55.520     1.4745 0.0000e+00
     54.000     7.5724    31.7777   10.25881  105.43760    24.8045 1.5562e+00     54.531     1.4198 0.0000e+00
     53.000     7.5987    31.7791   10.26763  105.52619    24.8027 1.5574e+00     53.486     1.5179 0.0000e+00
     52.000     7.6037    31.7702   10.27520  105.62668    24.7938 1.5593e+00     52.521     1.5087 0.0000e+00
     51.000     7.6030    31.7718   10.28016  105.71149    24.7954 1.5619e+00     51.476     1.4722 0.0000e+00
     50.000     7.6144    31.7721   10.29136  105.83697    24.7944 1.5647e+00     50.494     1.5500 0.0000e+00
     49.000     7.6290    31.7698   10.29401  105.86753    24.7905 1.5678e+00     49.446     1.6218 0.0000e+00
     48.000     7.6320    31.7676   10.29606  105.88893    24.7881 1.5720e+00     48.475     1.4632 0.0000e+00
     47.000     7.6321    31.7652   10.29964  105.94345    24.7860 1.5767e+00     47.436     1.4594 0.0000e+00
     46.000     7.6344    31.7674   10.30933  106.04614    24.7877 1.5827e+00     46.447     1.5277 0.0000e+00
     45.000     7.6422    31.7661   10.31513  106.08017    24.7856 1.5889e+00     45.416     1.4489 0.0000e+00
     44.000     7.6402    31.7628   10.30795  106.04847    24.7828 1.5974e+00     44.436     1.5359 0.0000e+00
     43.000     7.6335    31.7674   10.31911  106.17784    24.7879 1.6071e+00     43.420     1.4928 0.0000e+00
     42.000     7.6530    31.7637   10.32053  106.19482    24.7823 1.6188e+00     42.435     1.5015 0.0000e+00
     41.000     7.6567    31.7606   10.32159  106.18544    24.7791 1.6330e+00     41.364     1.5391 0.0000e+00
     40.000     7.6542    31.7603   10.31574  106.01158    24.7791 1.6480e+00     40.371     1.5135 0.0000e+00
     39.000     7.6339    31.7558   10.29789  105.83722    24.7771 1.6654e+00     39.379     1.4804 0.0000e+00
     38.000     7.5892    31.7695   10.29798  105.81659    24.7948 1.6864e+00     38.376     1.4187 0.0000e+00
     37.000     7.6085    31.7719   10.29601  105.78811    24.7950 1.7104e+00     37.343     1.4080 0.0000e+00
     36.000     7.5861    31.7728   10.29563  105.90745    24.7983 1.7388e+00     36.373     1.3627 0.0000e+00
     35.000     7.6204    31.7773   10.32090  106.29270    24.7989 1.7698e+00     35.331     1.4709 0.0000e+00
     34.000     7.6877    31.7550   10.34212  106.57500    24.7716 1.8067e+00     34.323     1.6667 0.0000e+00
     33.000     7.7240    31.7376   10.35210  106.71776    24.7524 1.8515e+00     33.312     1.5967 0.0000e+00
     32.000     7.7417    31.7286   10.35424  106.82018    24.7426 1.9028e+00     32.314     1.5055 0.0000e+00
     31.000     7.7708    31.7204   10.37575  107.04836    24.7328 1.9657e+00     31.288     1.6446 0.0000e+00
     30.000     7.7918    31.7011   10.37951  107.07739    24.7131 2.0402e+00     30.286     1.6453 0.0000e+00
     29.000     7.7794    31.7125   10.39059  107.27035    24.7246 2.1276e+00     29.286     1.6112 0.0000e+00
     28.000     7.8202    31.6934   10.39368  107.27671    24.7037 2.2329e+00     28.280     1.6542 0.0000e+00
     27.000     7.8062    31.6974   10.38659  107.20837    24.7083 2.3600e+00     27.236     1.6147 0.0000e+00
     26.000     7.8044    31.7051   10.40455  107.45464    24.7149 2.5164e+00     26.230     1.6455 0.0000e+00
     25.000     7.8257    31.7009   10.42327  107.71603    24.7094 2.7052e+00     25.239     1.6750 0.0000e+00
     24.000     7.8648    31.6788   10.42212  107.55626    24.6865 2.9336e+00     24.242     1.7156 0.0000e+00
     23.000     7.8078    31.6817   10.41509  107.75887    24.6932 3.2009e+00     23.213     1.6940 0.0000e+00
     22.000     7.8972    31.6827   10.44138  108.17845    24.6888 3.5421e+00     22.200     1.6243 0.0000e+00
     21.000     7.9898    31.6022   10.43574  108.19197    24.6092 3.9684e+00     21.195     1.5373 0.0000e+00
     20.000     8.0318    31.5652   10.42652  108.15370    24.5738 4.4646e+00     20.204     1.6298 0.0000e+00
     19.000     8.0713    31.5247   10.40506  108.03207    24.5364 5.0557e+00     19.150     1.4657 0.0000e+00
     18.000     8.1155    31.4714   10.39166  107.99975    24.4890 5.9065e+00     18.173     1.3411 0.0000e+00
     17.000     8.1856    31.4038   10.36226  107.70814    24.4260 6.8733e+00     17.183     1.2766 0.0000e+00
     16.000     8.2297    31.2942   10.30705  107.18714    24.3330 8.0412e+00     16.146     1.2740 0.0000e+00
     15.000     8.2763    31.1931   10.25069  106.65208    24.2471 9.5682e+00     15.119     1.0072 0.0000e+00
     14.000     8.3136    31.1285   10.20902  106.24528    24.1909 1.1483e+01     14.120     0.9479 0.0000e+00
     13.000     8.3379    31.0839   10.20893  106.26748    24.1522 1.3935e+01     13.113     0.9390 0.0000e+00
     12.000     8.3629    31.0326   10.14807  105.63542    24.1086 1.7389e+01     12.138     0.9475 0.0000e+00
     11.000     8.3803    30.9822   10.11573  105.35841    24.0659 2.2087e+01     11.093     0.7964 0.0000e+00
     10.000     8.3942    30.9609   10.09703  105.30352    24.0480 2.8392e+01     10.047     0.8135 0.0000e+00
      9.000     8.4542    30.9194   10.08118  105.18994    24.0080 3.7565e+01      9.089     0.8150 0.0000e+00
      8.000     8.5053    30.8596   10.05777  104.99107    23.9530 4.9490e+01      8.090     0.7942 0.0000e+00
      7.000     8.5435    30.8079   10.03388  104.76260    23.9067 6.8089e+01      7.041     0.7869 0.0000e+00
      6.000     8.5780    30.7445   10.02283  104.63455    23.8519 9.3512e+01      6.040     0.8187 0.0000e+00
      5.000     8.5989    30.6875   10.01422  104.53762    23.8037 1.3334e+02      5.027     0.8536 0.0000e+00
      4.000     8.6083    30.6323    9.84485  102.79953    23.7587 1.9148e+02      4.038     0.7980 0.0000e+00
      3.000     8.6183    30.5881    9.90175  103.58012    23.7228 2.8541e+02      3.046     0.7851 0.0000e+00
      2.000     8.6466    30.5355    9.98727  104.64359    23.6788 4.2229e+02      2.017     0.6547 0.0000e+00
      1.000     8.7565    30.4369   10.96644  105.12390    23.5896 1.0906e+03      1.128     0.5340 0.0000e+00
