* Sea-Bird SBE19plus Data File:
* FileName = C:\data\otf\2007\ctd-07084.hex
* Software Version 1.55
* Temperature SN =  5061
* Conductivity SN =  5061
* System UpLoad Time = Aug 15 2007 16:22:45
* ds
* SeacatPlus V 1.6a  SERIAL NO. 5061    15 Aug 2007  15:31:53
* vbatt = 10.9, vlith =  8.7, ioper =  61.6 ma, ipump =  57.5 ma, 
* iext01 =  95.2 ma
* iext23 =  58.1 ma
* 
* status = not logging
* number of scans to average = 1
* samples = 153039, free = 288466, casts = 154
* mode = profile, minimum cond freq = 3000, pump delay = 60 sec
* autorun = no, ignore magnetic switch = no
* battery type = alkaline, battery cutoff =  7.3 volts
* pressure sensor = strain gauge, range = 870.0
* SBE 38 = no, Gas Tension Device = no
* Ext Volt 0 = yes, Ext Volt 1 = yes, Ext Volt 2 = yes, Ext Volt 3 = yes
* echo commands = yes
* output format = raw HEX
* S>
* 
* SeacatPlus V 1.6a  SERIAL NO. 5061    15 Aug 2007  15:32:18
* temperature:  05-oct-06
*     TA0 = 1.254184e-03
*     TA1 = 2.596730e-04
*     TA2 = 5.165612e-07
*     TA3 = 1.318931e-07
*     TOFFSET = 0.000000e+00
* conductivity:  05-oct-06
*     G = -9.978144e-01
*     H = 1.555200e-01
*     I = -4.839108e-04
*     J = 6.121100e-05
*     CF0 = 2.539936e+03
*     CPCOR = -9.570000e-08
*     CTCOR = 3.250000e-06
*     CSLOPE = 1.000000e+00
* pressure S/N = 2362539, range = 870 psia:  24-aug-06
*     PA0 = 2.171091e-01
*     PA1 = 2.647085e-03
*     PA2 = 1.419397e-11
*     PTCA0 = 5.242437e+05
*     PTCA1 = 7.545345e+00
*     PTCA2 = -1.835354e-01
*     PTCB0 = 2.537125e+01
*     PTCB1 = -1.750000e-03
*     PTCB2 = 0.000000e+00
*     PTEMPA0 = -5.753989e+01
*     PTEMPA1 = 5.235813e+01
*     PTEMPA2 = -4.015521e-02
*     POFFSET = 0.000000e+00
* volt 0: offset = -4.682842e-02, slope = 1.249147e+00
* volt 1: offset = -4.695158e-02, slope = 1.248145e+00
* volt 2: offset = -4.685263e-02, slope = 1.248783e+00
* volt 3: offset = -4.690316e-02, slope = 1.249508e+00
*     EXTFREQSF = 1.000002e+00
* dh
* cast  84 16 Jul 2007 05:43:34 samples 54333 to 54661, avg = 4, stop = mag switch
* S> 
# nquan = 10
# nvalues = 166                         
# units = specified
# name 0 = depSM: Depth [salt water, m]
# name 1 = tv290C: Temperature [ITS-90, deg C]
# name 2 = sal00: Salinity [PSU]
# name 3 = sbeox0Mg/L: Oxygen, SBE 43 [mg/l]
# name 4 = sbeox0PS: Oxygen, SBE 43 [% saturation]
# name 5 = sigma-t00: Density [sigma-t, Kg/m^3 ]
# name 6 = par: PAR/Irradiance, Biospherical/Licor
# name 7 = prdM: Pressure, Strain Gauge [db]
# name 8 = flECO-AFL: Fluorescence, Wetlab ECO-AFL/FL [mg/m^3]
# name 9 = flag: flag
# span 0 =      1.000,     85.000       
# span 1 =     8.2776,     9.2096       
# span 2 =    30.7358,    31.5503       
# span 3 =    9.00103,   10.66948       
# span 4 =   93.23820,  102.54270       
# span 5 =    23.7496,    24.5259       
# span 6 = 1.5482e+00, 3.2650e+01       
# span 7 =      1.893,     84.691       
# span 8 =     0.5925,     1.1275       
# span 9 = 0.0000e+00, 0.0000e+00       
# interval = meters: 1                  
# start_time = Jul 16 2007 05:43:34
# bad_flag = -9.990e-29
# sensor 0 = Frequency 0  temperature, 5061, 05-Oct-06
# sensor 1 = Frequency 1  conductivity, 5061, 05-Oct-06, cpcor = -9.5700e-08
# sensor 2 = Pressure Number
# sensor 3 = Extrnl Volt  0  irradiance (PAR), primary, 4751, 08/10/06
# sensor 4 = Extrnl Volt  1  Oxygen, SBE, primary, 1081, 10/24/06
# sensor 5 = Extrnl Volt  2  WET Labs, ECO_AFL
# sensor 6 = Extrnl Volt  3  userpoly 0, 0627, 10/11/06
# datcnv_date = Oct 15 2007 14:49:46, 5.37e
# datcnv_in = I:\bob d\OTF_GEM\2007\ctd-07084.hex I:\Willette\OTF\CTD\5061.con
# datcnv_skipover = 0
# filter_date = Oct 15 2007 15:02:27, 5.37e
# filter_in = I:\Willette\OTF\CTD\2007\CTD Data\ctd-07084.cnv
# filter_low_pass_tc_A = 1.000
# filter_low_pass_tc_B = 0.150
# filter_low_pass_A_vars = prdM
# filter_low_pass_B_vars =
# loopedit_date = Oct 15 2007 15:06:48, 5.37e
# loopedit_in = I:\Willette\OTF\CTD\2007\CTD Data\ctd-07084.cnv
# loopedit_minVelocity = 0.250                                                                                            
# loopedit_surfaceSoak: minDepth = 5.0, maxDepth = 20, useDeckPress = 1                                                   
# loopedit_excl_bad_scans = yes
# alignctd_date = Oct 15 2007 15:14:16, 5.37e
# alignctd_in = I:\Willette\OTF\CTD\2007\CTD Data\ctd-07084.cnv
# alignctd_adv = tv290C 0.500, sbeox0Mg/L 4.000, sbeox0PS 4.000                                                                                                                                                                      
# binavg_date = Oct 15 2007 15:18:45, 5.37e
# binavg_in = I:\Willette\OTF\CTD\2007\CTD Data\ctd-07084.cnv
# binavg_bintype = meters
# binavg_binsize = 1
# binavg_excl_bad_scans = yes
# binavg_skipover = 0
# binavg_surface_bin = no, min = 0.000, max = 0.000, value = 0.000
# file_type = ascii
*END*
      4.000     9.1380    30.8109    9.00103   95.10993    23.8159 1.0354e+01      5.052     0.6074 0.0000e+00
      5.000     9.1296    30.8240    9.23901   97.62529    23.8283 8.7129e+00      6.116     0.6081 0.0000e+00
      6.000     9.1287    30.8323    9.28545   98.09323    23.8362 7.0265e+00      6.766     0.6105 0.0000e+00
      7.000     9.1210    30.8353    9.32599   98.49884    23.8388 5.7274e+00      7.495     0.6125 0.0000e+00
      8.000     9.1083    30.8385    9.37110   98.93976    23.8417 4.7701e+00      8.445     0.6282 0.0000e+00
      9.000     9.1059    30.8498    9.41325   99.29554    23.8522 4.0820e+00      9.594     0.6479 0.0000e+00
     10.000     9.1049    30.8570    9.42561   99.43067    23.8591 3.5880e+00     10.175     0.6559 0.0000e+00
     11.000     9.1037    30.8598    9.44227   99.56103    23.8617 3.1465e+00     10.843     0.6445 0.0000e+00
     12.000     9.1008    30.8642    9.45583   99.63609    23.8653 2.7712e+00     11.748     0.6306 0.0000e+00
     13.000     9.0984    30.8682    9.46763   99.71993    23.8688 2.5238e+00     12.629     0.6616 0.0000e+00
     14.000     9.0962    30.8755    9.48594   99.89285    23.8749 2.3132e+00     13.464     0.6628 0.0000e+00
     15.000     9.0805    30.8880    9.51417  100.18169    23.8852 2.1391e+00     14.688     0.6793 0.0000e+00
     16.000     9.0612    30.9004    9.53607  100.41749    23.8966 2.0165e+00     15.837     0.6811 0.0000e+00
     17.000     9.0587    30.9062    9.55015  100.57279    23.9034 1.9223e+00     16.761     0.6804 0.0000e+00
     18.000     9.0542    30.9144    9.56358  100.72426    23.9117 1.8429e+00     17.753     0.7077 0.0000e+00
     19.000     9.0163    30.9191    9.58157  100.88307    23.9170 1.7830e+00     19.274     0.7279 0.0000e+00
     20.000     8.9789    30.9278    9.59547  100.99741    23.9275 1.7374e+00     20.551     0.7083 0.0000e+00
     21.000     8.9319    30.9638    9.61252  101.15968    23.9635 1.6962e+00     21.688     0.6583 0.0000e+00
     22.000     8.8829    30.9624    9.62307  101.25302    23.9632 1.6699e+00     22.551     0.7042 0.0000e+00
     23.000     8.8774    30.9880    9.62751  101.29714    23.9898 1.6457e+00     23.301     0.6742 0.0000e+00
     24.000     8.8685    31.0186    9.63790  101.38478    24.0189 1.6269e+00     24.292     0.6541 0.0000e+00
     25.000     8.8665    31.0348    9.64586  101.44419    24.0339 1.6121e+00     25.059     0.6528 0.0000e+00
     26.000     8.8670    31.0420    9.65862  101.55587    24.0406 1.5991e+00     25.947     0.6401 0.0000e+00
     27.000     8.8692    31.0506    9.66674  101.58504    24.0474 1.5895e+00     27.121     0.6793 0.0000e+00
     28.000     8.8704    31.0577    9.66686  101.46612    24.0527 1.5816e+00     28.176     0.6755 0.0000e+00
     29.000     8.8520    31.0697    9.66853  101.41689    24.0617 1.5759e+00     29.453     0.7071 0.0000e+00
     30.000     8.8265    31.0861    9.68087  101.53882    24.0758 1.5710e+00     30.465     0.6993 0.0000e+00
     31.000     8.8234    31.1016    9.69116  101.64898    24.0904 1.5675e+00     31.144     0.6950 0.0000e+00
     32.000     8.8090    31.1246    9.69944  101.74057    24.1116 1.5642e+00     32.320     0.7314 0.0000e+00
     33.000     8.8034    31.1403    9.70586  101.80117    24.1251 1.5619e+00     33.193     0.7138 0.0000e+00
     34.000     8.7915    31.1635    9.70539  101.78412    24.1456 1.5599e+00     34.375     0.7438 0.0000e+00
     35.000     8.7712    31.1669    9.70673  101.74586    24.1487 1.5582e+00     35.285     0.7031 0.0000e+00
     36.000     8.7510    31.1888    9.71476  101.78892    24.1690 1.5570e+00     36.547     0.7199 0.0000e+00
     37.000     8.7423    31.2035    9.72310  101.84396    24.1827 1.5559e+00     37.115     0.7806 0.0000e+00
     38.000     8.6856    31.2125    9.72735  101.85872    24.1919 1.5552e+00     38.255     0.7495 0.0000e+00
     39.000     8.6266    31.2061    9.72548  101.82276    24.1933 1.5543e+00     39.536     0.7614 0.0000e+00
     40.000     8.6322    31.2416    9.73537  101.91096    24.2290 1.5542e+00     40.299     0.7395 0.0000e+00
     41.000     8.6278    31.2633    9.73712  101.89955    24.2490 1.5535e+00     41.463     0.6553 0.0000e+00
     42.000     8.6274    31.2764    9.73823  101.89526    24.2596 1.5530e+00     42.399     0.7386 0.0000e+00
     43.000     8.6217    31.2878    9.74197  101.91115    24.2686 1.5527e+00     43.365     0.7548 0.0000e+00
     44.000     8.6043    31.2985    9.75164  101.97572    24.2778 1.5522e+00     44.557     0.7369 0.0000e+00
     45.000     8.5854    31.3018    9.75376  101.99215    24.2812 1.5521e+00     45.508     0.7503 0.0000e+00
     46.000     8.5599    31.3226    9.75651  102.01066    24.3020 1.5521e+00     46.715     0.7481 0.0000e+00
     47.000     8.5429    31.3279    9.76587  102.06772    24.3081 1.5521e+00     47.544     0.7361 0.0000e+00
     48.000     8.5357    31.3384    9.76630  102.04278    24.3189 1.5518e+00     48.349     0.7582 0.0000e+00
     49.000     8.5242    31.3519    9.77077  102.03108    24.3324 1.5515e+00     49.658     0.7232 0.0000e+00
     50.000     8.5187    31.3546    9.77092  102.03214    24.3353 1.5516e+00     50.456     0.7220 0.0000e+00
     51.000     8.5062    31.3625    9.77421  102.06874    24.3430 1.5514e+00     51.394     0.7152 0.0000e+00
     52.000     8.4920    31.3657    9.77365  102.06656    24.3462 1.5517e+00     52.437     0.7542 0.0000e+00
     53.000     8.4875    31.3763    9.77396  102.06759    24.3568 1.5512e+00     53.286     0.7463 0.0000e+00
     54.000     8.4551    31.3847    9.77544  102.08588    24.3649 1.5515e+00     54.988     0.7080 0.0000e+00
     55.000     8.4587    31.3968    9.78157  102.12210    24.3769 1.5514e+00     55.544     0.7756 0.0000e+00
     56.000     8.4565    31.4053    9.78141  102.05830    24.3850 1.5512e+00     56.409     0.7776 0.0000e+00
     57.000     8.4460    31.4108    9.78209  102.03612    24.3904 1.5510e+00     57.605     0.8016 0.0000e+00
     58.000     8.4098    31.4120    9.78856  102.10565    24.3916 1.5510e+00     58.645     0.8171 0.0000e+00
     59.000     8.4006    31.4266    9.79385  102.14454    24.4056 1.5511e+00     59.191     0.8373 0.0000e+00
     60.000     8.3714    31.4522    9.79673  102.16819    24.4304 1.5508e+00     60.493     0.8514 0.0000e+00
     61.000     8.3788    31.4642    9.79797  102.17245    24.4423 1.5510e+00     60.982     0.9277 0.0000e+00
     62.000     8.3826    31.4747    9.80077  102.18743    24.4521 1.5508e+00     62.434     0.8581 0.0000e+00
     63.000     8.3821    31.4693    9.80349  102.20085    24.4470 1.5507e+00     63.948     0.9089 0.0000e+00
     64.000     8.3703    31.4701    9.80906  102.25374    24.4477 1.5504e+00     64.841     0.8721 0.0000e+00
     65.000     8.3291    31.4660    9.81110  102.27281    24.4438 1.5505e+00     65.873     0.8811 0.0000e+00
     66.000     8.3181    31.4983    9.81141  102.27810    24.4761 1.5508e+00     66.861     0.8706 0.0000e+00
     67.000     8.3152    31.5169    9.81020  102.26882    24.4934 1.5505e+00     67.764     0.9045 0.0000e+00
     68.000     8.3091    31.5164    9.80932  102.25941    24.4932 1.5502e+00     68.882     0.9085 0.0000e+00
     69.000     8.3076    31.5235    9.81119  102.27853    24.5000 1.5505e+00     69.542     0.9204 0.0000e+00
     70.000     8.3004    31.5254    9.81904  102.35035    24.5018 1.5506e+00     70.704     0.9232 0.0000e+00
     71.000     8.2971    31.5300    9.82467  102.40930    24.5064 1.5505e+00     71.760     0.9343 0.0000e+00
     72.000     8.2886    31.5323    9.81555  102.31280    24.5086 1.5502e+00     72.603     0.9522 0.0000e+00
     73.000     8.2902    31.5383    9.81551  102.31042    24.5144 1.5503e+00     73.659     0.9927 0.0000e+00
     74.000     8.2839    31.5412    9.82489  102.40796    24.5172 1.5503e+00     74.706     1.0038 0.0000e+00
     75.000     8.2825    31.5437    9.83318  102.49500    24.5196 1.5501e+00     75.639     1.0274 0.0000e+00
     76.000     8.2832    31.5461    9.83561  102.52052    24.5219 1.5503e+00     76.568     1.0744 0.0000e+00
     77.000     8.2854    31.5452    9.83293  102.49246    24.5211 1.5502e+00     77.700     1.0666 0.0000e+00
     78.000     8.2852    31.5433    9.83195  102.48215    24.5193 1.5500e+00     78.643     0.9932 0.0000e+00
     79.000     8.2851    31.5433    9.83487  102.51281    24.5192 1.5500e+00     79.439     0.9827 0.0000e+00
     80.000     8.2792    31.5434    9.83770  102.54270    24.5193 1.5499e+00     80.501     0.9831 0.0000e+00
     81.000     8.2796    31.5458    9.83236  102.48751    24.5217 1.5499e+00     81.281     1.0006 0.0000e+00
     82.000     8.2788    31.5484    9.82121  102.37156    24.5241 1.5499e+00     82.011     1.1148 0.0000e+00
     83.000     8.2776    31.5484    9.82028  102.36305    24.5240 1.5499e+00     82.859     1.0050 0.0000e+00
     84.000     8.2776    31.5496    9.82382  102.40064    24.5252 1.5511e+00     83.595     1.0428 0.0000e+00
     85.000     8.2784    31.5503    9.81889  102.35816    24.5259 1.5497e+00     84.691     1.0937 0.0000e+00
     84.000     8.2782    31.5496    9.81767  102.34743    24.5251 1.5492e+00     83.853     1.0442 0.0000e+00
     83.000     8.2789    31.5493    9.81771  102.34878    24.5249 1.5494e+00     83.017     1.1203 0.0000e+00
     82.000     8.2791    31.5486    9.82448  102.42335    24.5243 1.5489e+00     82.190     1.1275 0.0000e+00
     81.000     8.2801    31.5484    9.82395  102.43245    24.5241 1.5495e+00     81.421     1.0799 0.0000e+00
     80.000     8.2833    31.5484    9.82299  102.43788    24.5239 1.5494e+00     80.266     0.9803 0.0000e+00
     79.000     8.2831    31.5461    9.82119  102.42962    24.5219 1.5493e+00     79.670     1.0429 0.0000e+00
     78.000     8.2862    31.5451    9.81060  102.34824    24.5209 1.5492e+00     78.480     1.1114 0.0000e+00
     77.000     8.2842    31.5421    9.80938  102.33953    24.5182 1.5494e+00     77.727     0.9768 0.0000e+00
     76.000     8.2851    31.5431    9.80752  102.31147    24.5191 1.5493e+00     76.726     1.0175 0.0000e+00
     75.000     8.2869    31.5434    9.81011  102.34718    24.5195 1.5494e+00     75.793     0.9528 0.0000e+00
     74.000     8.2868    31.5414    9.80760  102.37302    24.5175 1.5491e+00     74.631     1.0045 0.0000e+00
     73.000     8.2886    31.5411    9.81837  102.48488    24.5173 1.5491e+00     73.827     0.9063 0.0000e+00
     72.000     8.2971    31.5403    9.81802  102.46783    24.5165 1.5492e+00     72.820     0.9963 0.0000e+00
     71.000     8.3050    31.5333    9.81407  102.50091    24.5097 1.5489e+00     71.601     0.9421 0.0000e+00
     70.000     8.3129    31.5292    9.81371  102.54237    24.5057 1.5489e+00     70.835     0.9069 0.0000e+00
     69.000     8.3271    31.5223    9.80545  102.47460    24.4991 1.5492e+00     69.756     0.9210 0.0000e+00
     68.000     8.3254    31.5107    9.80363  102.46869    24.4878 1.5489e+00     68.667     0.8603 0.0000e+00
     67.000     8.3279    31.5103    9.80636  102.50475    24.4875 1.5490e+00     67.670     0.8558 0.0000e+00
     66.000     8.3398    31.5099    9.80226  102.46428    24.4869 1.5492e+00     66.690     0.8447 0.0000e+00
     65.000     8.3620    31.5037    9.79478  102.39030    24.4808 1.5491e+00     65.680     0.8368 0.0000e+00
     64.000     8.3523    31.4856    9.79838  102.43791    24.4634 1.5492e+00     64.715     0.8074 0.0000e+00
     63.000     8.3707    31.4934    9.79689  102.42101    24.4708 1.5488e+00     63.719     0.8046 0.0000e+00
     62.000     8.4122    31.4835    9.80018  102.46425    24.4611 1.5488e+00     62.832     0.7943 0.0000e+00
     61.000     8.4241    31.4477    9.80121  102.47808    24.4264 1.5488e+00     61.864     0.7775 0.0000e+00
     60.000     8.4337    31.4343    9.79966  102.46305    24.4134 1.5489e+00     60.945     0.7877 0.0000e+00
     59.000     8.4360    31.4301    9.79459  102.42432    24.4094 1.5491e+00     60.259     0.7789 0.0000e+00
     58.000     8.4440    31.4211    9.79025  102.42095    24.4006 1.5486e+00     58.732     0.7566 0.0000e+00
     57.000     8.4555    31.4129    9.78495  102.48258    24.3927 1.5485e+00     56.882     0.7541 0.0000e+00
     56.000     8.4642    31.4090    9.77995  102.47455    24.3890 1.5482e+00     55.910     0.7649 0.0000e+00
     55.000     8.4707    31.4028    9.78163  102.51904    24.3833 1.5487e+00     55.122     0.7943 0.0000e+00
     54.000     8.4748    31.3974    9.77879  102.52246    24.3780 1.5487e+00     54.223     0.7482 0.0000e+00
     53.000     8.4818    31.3940    9.77219  102.50304    24.3746 1.5482e+00     53.278     0.7728 0.0000e+00
     52.000     8.4910    31.3903    9.77261  102.50896    24.3711 1.5486e+00     52.445     0.7517 0.0000e+00
     51.000     8.5098    31.3841    9.75729  102.34612    24.3648 1.5487e+00     51.446     0.7601 0.0000e+00
     50.000     8.5200    31.3746    9.75026  102.27146    24.3552 1.5487e+00     50.556     0.7429 0.0000e+00
     49.000     8.5397    31.3636    9.75551  102.34112    24.3443 1.5491e+00     49.503     0.7296 0.0000e+00
     48.000     8.5610    31.3571    9.75588  102.38468    24.3375 1.5491e+00     48.653     0.7235 0.0000e+00
     47.000     8.5735    31.3364    9.75783  102.45741    24.3167 1.5491e+00     47.553     0.7675 0.0000e+00
     46.000     8.5863    31.3291    9.75786  102.51212    24.3094 1.5491e+00     46.583     0.7349 0.0000e+00
     45.000     8.6116    31.3215    9.74869  102.45705    24.3016 1.5493e+00     45.615     0.7296 0.0000e+00
     44.000     8.6285    31.3039    9.74417  102.44439    24.2838 1.5496e+00     44.574     0.7819 0.0000e+00
     43.000     8.6332    31.2832    9.74455  102.47741    24.2650 1.5496e+00     43.550     0.7454 0.0000e+00
     42.000     8.6370    31.2684    9.74470  102.51801    24.2527 1.5499e+00     42.530     0.7326 0.0000e+00
     41.000     8.6573    31.2572    9.73158  102.40461    24.2432 1.5506e+00     41.318     0.6835 0.0000e+00
     40.000     8.6850    31.2512    9.71596  102.24844    24.2358 1.5509e+00     40.400     0.6880 0.0000e+00
     39.000     8.7165    31.2404    9.71620  102.26435    24.2229 1.5512e+00     39.387     0.6868 0.0000e+00
     38.000     8.7456    31.2276    9.71160  102.22177    24.2074 1.5519e+00     38.216     0.7516 0.0000e+00
     37.000     8.7609    31.2123    9.71044  102.22489    24.1926 1.5530e+00     37.340     0.7572 0.0000e+00
     36.000     8.7884    31.1918    9.71012  102.22648    24.1736 1.5539e+00     36.292     0.7766 0.0000e+00
     35.000     8.8106    31.1512    9.70125  102.13552    24.1377 1.5554e+00     35.253     0.7232 0.0000e+00
     34.000     8.8225    31.1186    9.69792  102.10115    24.1088 1.5573e+00     34.306     0.6756 0.0000e+00
     33.000     8.8284    31.1046    9.69365  102.06395    24.0965 1.5594e+00     33.320     0.6734 0.0000e+00
     32.000     8.8353    31.0973    9.69176  102.07344    24.0898 1.5623e+00     32.398     0.6611 0.0000e+00
     31.000     8.8423    31.0842    9.68341  102.09954    24.0779 1.5652e+00     31.076     0.6713 0.0000e+00
     30.000     8.8525    31.0728    9.67503  102.11385    24.0683 1.5699e+00     30.260     0.6865 0.0000e+00
     29.000     8.8582    31.0545    9.66677  102.09663    24.0520 1.5754e+00     29.001     0.6802 0.0000e+00
     28.000     8.8595    31.0522    9.66550  102.10580    24.0501 1.5824e+00     28.307     0.6527 0.0000e+00
     27.000     8.8609    31.0457    9.65330  101.99965    24.0445 1.5906e+00     27.125     0.6309 0.0000e+00
     26.000     8.8631    31.0431    9.64249  101.91487    24.0424 1.6022e+00     26.112     0.6658 0.0000e+00
     25.000     8.8767    31.0398    9.65241  102.02639    24.0395 1.6167e+00     25.200     0.6587 0.0000e+00
     24.000     8.9154    31.0282    9.64270  101.92783    24.0285 1.6344e+00     24.119     0.6828 0.0000e+00
     23.000     8.9723    31.0065    9.64028  101.90205    24.0072 1.6560e+00     23.143     0.6346 0.0000e+00
     22.000     9.0107    30.9743    9.63325  101.83289    23.9739 1.6844e+00     22.178     0.6466 0.0000e+00
     21.000     9.0379    30.9267    9.64702  101.98670    23.9248 1.7180e+00     20.733     0.6502 0.0000e+00
     20.000     9.0444    30.9348    9.63949  101.90980    23.9325 1.7655e+00     20.126     0.6389 0.0000e+00
     19.000     9.0555    30.9265    9.63314  101.85524    23.9235 1.8207e+00     18.965     0.7235 0.0000e+00
     18.000     9.0691    30.9235    9.63206  101.85509    23.9201 1.8916e+00     18.118     0.6798 0.0000e+00
     17.000     9.0768    30.9152    9.63048  101.86314    23.9116 1.9820e+00     17.086     0.6693 0.0000e+00
     16.000     9.0813    30.9026    9.62856  101.84776    23.9001 2.0982e+00     16.015     0.6617 0.0000e+00
     15.000     9.0833    30.8930    9.62645  101.83375    23.8917 2.2462e+00     15.106     0.6837 0.0000e+00
     14.000     9.0856    30.8865    9.62598  101.83838    23.8862 2.4305e+00     13.974     0.6643 0.0000e+00
     13.000     9.0898    30.8808    9.63232  101.92307    23.8816 2.6681e+00     13.099     0.6495 0.0000e+00
     12.000     9.0923    30.8758    9.63048  101.93560    23.8775 2.9721e+00     12.313     0.6538 0.0000e+00
     11.000     9.0945    30.8677    9.61921  101.87401    23.8700 3.3509e+00     10.982     0.6612 0.0000e+00
     10.000     9.1016    30.8657    9.58594  101.51425    23.8685 3.8979e+00     10.189     0.6039 0.0000e+00
      9.000     9.1072    30.8609    9.54539  100.41446    23.8639 4.5671e+00      9.266     0.6089 0.0000e+00
      8.000     9.1209    30.8539   10.60376   98.68776    23.8573 5.3359e+00      8.157     0.6349 0.0000e+00
      7.000     9.1263    30.8451   10.66948   95.74153    23.8490 6.7142e+00      7.272     0.6156 0.0000e+00
      6.000     9.1304    30.8375   10.47111   93.23820    23.8415 8.1275e+00      6.199     0.5996 0.0000e+00
      5.000     9.1347    30.8343 -9.990e-29 -9.990e-29    23.8385 1.0486e+01      5.318     0.5959 0.0000e+00
      4.000     9.1460    30.8286 -9.990e-29 -9.990e-29    23.8331 1.2704e+01      4.327     0.6262 0.0000e+00
      3.000     9.1777    30.8216 -9.990e-29 -9.990e-29    23.8266 1.6013e+01      3.408     0.5952 0.0000e+00
      2.000     9.2036    30.7892 -9.990e-29 -9.990e-29    23.7978 1.9187e+01      2.698     0.5925 0.0000e+00
      1.000     9.2096    30.7358 -9.990e-29 -9.990e-29    23.7496 3.2650e+01      1.893     0.6085 0.0000e+00
