* Sea-Bird SBE19plus Data File:
* FileName = C:\data\otf\2007\ctd-07150.hex
* Software Version 1.55
* Temperature SN =  5061
* Conductivity SN =  5061
* System UpLoad Time = Aug 15 2007 17:43:17
* ds
* SeacatPlus V 1.6a  SERIAL NO. 5061    15 Aug 2007  15:31:53
* vbatt = 10.9, vlith =  8.7, ioper =  61.6 ma, ipump =  57.5 ma, 
* iext01 =  95.2 ma
* iext23 =  58.1 ma
* 
* status = not logging
* number of scans to average = 1
* samples = 153039, free = 288466, casts = 154
* mode = profile, minimum cond freq = 3000, pump delay = 60 sec
* autorun = no, ignore magnetic switch = no
* battery type = alkaline, battery cutoff =  7.3 volts
* pressure sensor = strain gauge, range = 870.0
* SBE 38 = no, Gas Tension Device = no
* Ext Volt 0 = yes, Ext Volt 1 = yes, Ext Volt 2 = yes, Ext Volt 3 = yes
* echo commands = yes
* output format = raw HEX
* S>
* 
* SeacatPlus V 1.6a  SERIAL NO. 5061    15 Aug 2007  15:32:18
* temperature:  05-oct-06
*     TA0 = 1.254184e-03
*     TA1 = 2.596730e-04
*     TA2 = 5.165612e-07
*     TA3 = 1.318931e-07
*     TOFFSET = 0.000000e+00
* conductivity:  05-oct-06
*     G = -9.978144e-01
*     H = 1.555200e-01
*     I = -4.839108e-04
*     J = 6.121100e-05
*     CF0 = 2.539936e+03
*     CPCOR = -9.570000e-08
*     CTCOR = 3.250000e-06
*     CSLOPE = 1.000000e+00
* pressure S/N = 2362539, range = 870 psia:  24-aug-06
*     PA0 = 2.171091e-01
*     PA1 = 2.647085e-03
*     PA2 = 1.419397e-11
*     PTCA0 = 5.242437e+05
*     PTCA1 = 7.545345e+00
*     PTCA2 = -1.835354e-01
*     PTCB0 = 2.537125e+01
*     PTCB1 = -1.750000e-03
*     PTCB2 = 0.000000e+00
*     PTEMPA0 = -5.753989e+01
*     PTEMPA1 = 5.235813e+01
*     PTEMPA2 = -4.015521e-02
*     POFFSET = 0.000000e+00
* volt 0: offset = -4.682842e-02, slope = 1.249147e+00
* volt 1: offset = -4.695158e-02, slope = 1.248145e+00
* volt 2: offset = -4.685263e-02, slope = 1.248783e+00
* volt 3: offset = -4.690316e-02, slope = 1.249508e+00
*     EXTFREQSF = 1.000002e+00
* dh
* cast 150 29 Jul 2007 11:43:18 samples 148258 to 149148, avg = 1, stop = mag switch
* S> 
# nquan = 10
# nvalues = 125                         
# units = specified
# name 0 = depSM: Depth [salt water, m]
# name 1 = tv290C: Temperature [ITS-90, deg C]
# name 2 = sal00: Salinity [PSU]
# name 3 = sbeox0Mg/L: Oxygen, SBE 43 [mg/l]
# name 4 = sbeox0PS: Oxygen, SBE 43 [% saturation]
# name 5 = sigma-t00: Density [sigma-t, Kg/m^3 ]
# name 6 = par: PAR/Irradiance, Biospherical/Licor
# name 7 = prdM: Pressure, Strain Gauge [db]
# name 8 = flECO-AFL: Fluorescence, Wetlab ECO-AFL/FL [mg/m^3]
# name 9 = flag: flag
# span 0 =      1.000,     65.000       
# span 1 =     8.5976,     8.9759       
# span 2 =    31.5069,    31.6678       
# span 3 =    8.32008,    9.67943       
# span 4 =   87.91804,   97.94879       
# span 5 =    24.3925,    24.5673       
# span 6 = 1.5599e+00, 3.7412e+02       
# span 7 =      1.109,     65.462       
# span 8 =     0.7321,     1.3163       
# span 9 = 0.0000e+00, 0.0000e+00       
# interval = meters: 1                  
# start_time = Jul 29 2007 11:43:18
# bad_flag = -9.990e-29
# sensor 0 = Frequency 0  temperature, 5061, 05-Oct-06
# sensor 1 = Frequency 1  conductivity, 5061, 05-Oct-06, cpcor = -9.5700e-08
# sensor 2 = Pressure Number
# sensor 3 = Extrnl Volt  0  irradiance (PAR), primary, 4751, 08/10/06
# sensor 4 = Extrnl Volt  1  Oxygen, SBE, primary, 1081, 10/24/06
# sensor 5 = Extrnl Volt  2  WET Labs, ECO_AFL
# sensor 6 = Extrnl Volt  3  userpoly 0, 0627, 10/11/06
# datcnv_date = Oct 15 2007 14:49:54, 5.37e
# datcnv_in = I:\bob d\OTF_GEM\2007\ctd-07150.hex I:\Willette\OTF\CTD\5061.con
# datcnv_skipover = 0
# filter_date = Oct 15 2007 15:02:44, 5.37e
# filter_in = I:\Willette\OTF\CTD\2007\CTD Data\ctd-07150.cnv
# filter_low_pass_tc_A = 1.000
# filter_low_pass_tc_B = 0.150
# filter_low_pass_A_vars = prdM
# filter_low_pass_B_vars =
# loopedit_date = Oct 15 2007 15:07:01, 5.37e
# loopedit_in = I:\Willette\OTF\CTD\2007\CTD Data\ctd-07150.cnv
# loopedit_minVelocity = 0.250                                                                                            
# loopedit_surfaceSoak: minDepth = 5.0, maxDepth = 20, useDeckPress = 1                                                   
# loopedit_excl_bad_scans = yes
# alignctd_date = Oct 15 2007 15:14:25, 5.37e
# alignctd_in = I:\Willette\OTF\CTD\2007\CTD Data\ctd-07150.cnv
# alignctd_adv = tv290C 0.500, sbeox0Mg/L 4.000, sbeox0PS 4.000                                                                                                                                                                      
# binavg_date = Oct 15 2007 15:18:54, 5.37e
# binavg_in = I:\Willette\OTF\CTD\2007\CTD Data\ctd-07150.cnv
# binavg_bintype = meters
# binavg_binsize = 1
# binavg_excl_bad_scans = yes
# binavg_skipover = 0
# binavg_surface_bin = no, min = 0.000, max = 0.000, value = 0.000
# file_type = ascii
*END*
      5.000     8.9374    31.5871    8.32008   87.91804    24.4528 2.5982e+02      5.155     0.7362 0.0000e+00
      6.000     8.9206    31.5986    8.42578   89.02152    24.4671 2.8327e+02      6.177     0.7415 0.0000e+00
      7.000     8.9002    31.5805    8.47190   89.48679    24.4550 2.5532e+02      7.215     0.7420 0.0000e+00
      8.000     8.8792    31.5743    8.51558   89.91155    24.4533 2.0814e+02      8.116     0.7683 0.0000e+00
      9.000     8.8681    31.5834    8.55307   90.27641    24.4631 1.7023e+02      9.040     0.8631 0.0000e+00
     10.000     8.8648    31.5871    8.57205   90.46554    24.4671 1.4361e+02     10.125     0.9036 0.0000e+00
     11.000     8.8581    31.5788    8.57648   90.50467    24.4612 1.2367e+02     11.141     0.9406 0.0000e+00
     12.000     8.8395    31.5767    8.59600   90.69697    24.4611 1.0685e+02     12.087     0.9710 0.0000e+00
     13.000     8.8166    31.5899    8.63587   91.11140    24.4748 9.1691e+01     13.051     1.0349 0.0000e+00
     14.000     8.8076    31.6053    8.67241   91.48577    24.4900 7.7971e+01     14.108     1.0966 0.0000e+00
     15.000     8.8069    31.6030    8.68486   91.58214    24.4884 6.7311e+01     15.175     1.0970 0.0000e+00
     16.000     8.7993    31.5973    8.69190   91.62655    24.4845 5.8061e+01     16.141     1.1051 0.0000e+00
     17.000     8.7953    31.6018    8.71207   91.81429    24.4892 4.9142e+01     17.115     1.0794 0.0000e+00
     18.000     8.7888    31.6036    8.72777   91.97534    24.4909 4.0945e+01     18.154     1.0443 0.0000e+00
     19.000     8.7691    31.6066    8.70986   91.77763    24.4956 3.4791e+01     19.188     1.0689 0.0000e+00
     20.000     8.7517    31.6124    8.70295   91.67595    24.5025 2.9317e+01     20.174     1.0494 0.0000e+00
     21.000     8.7379    31.6249    8.74115   92.05421    24.5155 2.4884e+01     21.151     1.0280 0.0000e+00
     22.000     8.7359    31.6315    8.73411   91.97163    24.5216 2.1053e+01     22.205     1.0355 0.0000e+00
     23.000     8.7311    31.6262    8.73960   92.01598    24.5176 1.7926e+01     23.296     1.0112 0.0000e+00
     24.000     8.7123    31.6241    8.77062   92.33671    24.5175 1.5521e+01     24.178     0.9974 0.0000e+00
     25.000     8.7028    31.6441    8.77285   92.33930    24.5363 1.3199e+01     25.212     1.0192 0.0000e+00
     26.000     8.6979    31.6376    8.79430   92.55250    24.5316 1.1400e+01     26.288     0.9911 0.0000e+00
     27.000     8.6919    31.6416    8.79128   92.51288    24.5358 9.8152e+00     27.243     0.9986 0.0000e+00
     28.000     8.6863    31.6433    8.73370   91.88362    24.5378 8.4612e+00     28.344     1.0013 0.0000e+00
     29.000     8.6777    31.6407    8.73092   91.83993    24.5369 7.4460e+00     29.262     0.9812 0.0000e+00
     30.000     8.6720    31.6458    8.76130   92.16460    24.5420 6.5006e+00     30.183     0.9747 0.0000e+00
     31.000     8.6651    31.6519    8.70641   91.58221    24.5477 5.6793e+00     31.312     0.9795 0.0000e+00
     32.000     8.6542    31.6468    8.68734   91.35713    24.5449 5.0700e+00     32.315     0.9819 0.0000e+00
     33.000     8.6476    31.6542    8.72046   91.68564    24.5523 4.5224e+00     33.202     0.9577 0.0000e+00
     34.000     8.6509    31.6649    8.68301   91.27483    24.5609 4.0181e+00     34.384     0.9712 0.0000e+00
     35.000     8.6452    31.6497    8.70167   91.46773    24.5488 3.6630e+00     35.322     0.9814 0.0000e+00
     36.000     8.6260    31.6595    8.71374   91.59363    24.5587 3.3187e+00     36.266     0.9549 0.0000e+00
     37.000     8.6180    31.6678    8.73729   91.84636    24.5673 3.0332e+00     37.385     0.9720 0.0000e+00
     38.000     8.6145    31.6660    8.73462   91.80670    24.5668 2.8051e+00     38.356     0.9978 0.0000e+00
     39.000     8.6145    31.6663    8.77128   92.18081    24.5671 2.6089e+00     39.376     0.9780 0.0000e+00
     40.000     8.6161    31.6654    8.86789   93.18627    24.5662 2.4460e+00     40.331     0.9787 0.0000e+00
     41.000     8.6162    31.6603    8.95742   94.12575    24.5619 2.3016e+00     41.428     0.9606 0.0000e+00
     42.000     8.6105    31.6510    9.00206   94.59200    24.5554 2.1876e+00     42.373     0.9769 0.0000e+00
     43.000     8.6046    31.6516    9.03210   94.90333    24.5567 2.0850e+00     43.452     0.9908 0.0000e+00
     44.000     8.6043    31.6545    9.04619   95.06022    24.5595 2.0021e+00     44.455     0.9950 0.0000e+00
     45.000     8.6039    31.6532    9.06441   95.25209    24.5582 1.9312e+00     45.472     0.9942 0.0000e+00
     46.000     8.5997    31.6532    9.07794   95.38547    24.5588 1.8729e+00     46.354     1.0024 0.0000e+00
     47.000     8.6030    31.6572    9.08261   95.42932    24.5620 1.8183e+00     47.474     0.9959 0.0000e+00
     48.000     8.6065    31.6540    9.08582   95.46394    24.5587 1.7779e+00     48.478     0.9665 0.0000e+00
     49.000     8.6015    31.6519    9.09404   95.55064    24.5572 1.7415e+00     49.364     0.9807 0.0000e+00
     50.000     8.5978    31.6559    9.10598   95.67624    24.5613 1.7086e+00     50.526     1.0100 0.0000e+00
     51.000     8.5983    31.6566    9.11192   95.74124    24.5619 1.6847e+00     51.496     1.0055 0.0000e+00
     52.000     8.5984    31.6562    9.11164   95.74068    24.5616 1.6627e+00     52.440     1.0147 0.0000e+00
     53.000     8.5985    31.6565    9.11505   95.77831    24.5618 1.6440e+00     53.522     1.0015 0.0000e+00
     54.000     8.6000    31.6558    9.11738   95.80271    24.5611 1.6288e+00     54.570     1.0205 0.0000e+00
     55.000     8.6010    31.6557    9.12503   95.88288    24.5609 1.6165e+00     55.477     1.0056 0.0000e+00
     56.000     8.6019    31.6551    9.12997   95.93404    24.5602 1.6054e+00     56.545     1.0142 0.0000e+00
     57.000     8.6020    31.6549    9.13384   95.97345    24.5600 1.5963e+00     57.558     0.9879 0.0000e+00
     58.000     8.6018    31.6547    9.13691   96.00251    24.5598 1.5878e+00     58.505     0.9963 0.0000e+00
     59.000     8.6015    31.6550    9.13845   96.01706    24.5602 1.5812e+00     59.565     0.9987 0.0000e+00
     60.000     8.6006    31.6548    9.13831   96.01586    24.5600 1.5757e+00     60.543     1.0234 0.0000e+00
     61.000     8.5987    31.6555    9.13403   95.97178    24.5609 1.5705e+00     61.562     1.0462 0.0000e+00
     62.000     8.5983    31.6565    9.13658   95.99863    24.5618 1.5667e+00     62.586     1.1333 0.0000e+00
     63.000     8.5987    31.6562    9.15319   96.17309    24.5616 1.5638e+00     63.553     1.1111 0.0000e+00
     64.000     8.5989    31.6562    9.14958   96.13742    24.5616 1.5610e+00     64.515     1.1302 0.0000e+00
     65.000     8.6016    31.6579    9.14326   96.07604    24.5626 1.5599e+00     65.462     1.1830 0.0000e+00
     64.000     8.6027    31.6562    9.14692   96.11389    24.5609 1.5610e+00     64.556     1.2071 0.0000e+00
     63.000     8.6029    31.6570    9.15616   96.20984    24.5616 1.5634e+00     63.543     1.1941 0.0000e+00
     62.000     8.6019    31.6563    9.15171   96.16247    24.5611 1.5666e+00     62.626     1.2005 0.0000e+00
     61.000     8.6012    31.6566    9.15438   96.18777    24.5615 1.5702e+00     61.518     1.3163 0.0000e+00
     60.000     8.6011    31.6564    9.15292   96.17184    24.5613 1.5750e+00     60.618     1.2227 0.0000e+00
     59.000     8.5999    31.6563    9.15262   96.16791    24.5614 1.5805e+00     59.523     1.2083 0.0000e+00
     58.000     8.5997    31.6559    9.15647   96.20794    24.5611 1.5870e+00     58.572     1.1831 0.0000e+00
     57.000     8.5992    31.6563    9.15556   96.19852    24.5615 1.5950e+00     57.519     1.1775 0.0000e+00
     56.000     8.5990    31.6562    9.16079   96.25343    24.5615 1.6043e+00     56.540     1.1917 0.0000e+00
     55.000     8.5991    31.6560    9.16433   96.28888    24.5613 1.6149e+00     55.538     1.1820 0.0000e+00
     54.000     8.5992    31.6557    9.16720   96.31719    24.5611 1.6277e+00     54.506     1.1678 0.0000e+00
     53.000     8.5986    31.6556    9.17139   96.36332    24.5610 1.6432e+00     53.520     1.1957 0.0000e+00
     52.000     8.5976    31.6560    9.17306   96.38415    24.5615 1.6612e+00     52.528     1.1910 0.0000e+00
     51.000     8.5991    31.6556    9.16914   96.34427    24.5611 1.6830e+00     51.434     1.1657 0.0000e+00
     50.000     8.6007    31.6540    9.17444   96.40150    24.5596 1.7092e+00     50.506     1.1490 0.0000e+00
     49.000     8.6010    31.6535    9.18077   96.46759    24.5590 1.7394e+00     49.388     1.1874 0.0000e+00
     48.000     8.6021    31.6538    9.17918   96.45646    24.5592 1.7758e+00     48.499     1.1320 0.0000e+00
     47.000     8.6020    31.6527    9.18193   96.49478    24.5583 1.8181e+00     47.414     1.1284 0.0000e+00
     46.000     8.6049    31.6533    9.18231   96.50631    24.5585 1.8671e+00     46.414     1.1119 0.0000e+00
     45.000     8.6093    31.6509    9.18348   96.52631    24.5561 1.9274e+00     45.383     1.1179 0.0000e+00
     44.000     8.6125    31.6500    9.18221   96.51586    24.5547 1.9977e+00     44.383     1.1099 0.0000e+00
     43.000     8.6156    31.6487    9.18444   96.54029    24.5533 2.0831e+00     43.433     1.0819 0.0000e+00
     42.000     8.6184    31.6467    9.19225   96.62334    24.5512 2.1843e+00     42.430     1.1083 0.0000e+00
     41.000     8.6196    31.6457    9.19246   96.62607    24.5502 2.3024e+00     41.405     1.1087 0.0000e+00
     40.000     8.6197    31.6458    9.19024   96.60402    24.5503 2.4443e+00     40.375     1.1073 0.0000e+00
     39.000     8.6202    31.6457    9.18086   96.51352    24.5501 2.6143e+00     39.429     1.0669 0.0000e+00
     38.000     8.6209    31.6454    9.18473   96.56571    24.5498 2.8112e+00     38.341     1.0267 0.0000e+00
     37.000     8.6249    31.6466    9.18975   96.60541    24.5505 3.0522e+00     37.356     1.0403 0.0000e+00
     36.000     8.6312    31.6416    9.19257   96.63394    24.5452 3.3368e+00     36.379     1.0354 0.0000e+00
     35.000     8.6237    31.6425    9.19283   96.63446    24.5468 3.6729e+00     35.286     1.0778 0.0000e+00
     34.000     8.6237    31.6440    9.18690   96.57230    24.5482 4.0726e+00     34.353     1.0656 0.0000e+00
     33.000     8.6227    31.6441    9.18615   96.57571    24.5485 4.5432e+00     33.273     1.0764 0.0000e+00
     32.000     8.6227    31.6441    9.19247   96.64060    24.5485 5.0943e+00     32.355     1.0446 0.0000e+00
     31.000     8.6287    31.6439    9.18714   96.58688    24.5477 5.7615e+00     31.256     1.0302 0.0000e+00
     30.000     8.6277    31.6424    9.18946   96.66154    24.5463 6.5608e+00     30.295     1.0412 0.0000e+00
     29.000     8.6296    31.6434    9.19533   96.78727    24.5471 7.5024e+00     29.279     1.0483 0.0000e+00
     28.000     8.6587    31.6370    9.20303   96.89977    24.5387 8.6134e+00     28.242     1.0631 0.0000e+00
     27.000     8.6910    31.6250    9.20635   96.94440    24.5249 9.9539e+00     27.247     1.0952 0.0000e+00
     26.000     8.7028    31.6119    9.20311   96.92297    24.5115 1.1561e+01     26.255     1.0710 0.0000e+00
     25.000     8.7108    31.6100    9.20409   96.94361    24.5090 1.3427e+01     25.197     1.0561 0.0000e+00
     24.000     8.7164    31.6055    9.20932   97.00887    24.5044 1.5724e+01     24.244     1.0513 0.0000e+00
     23.000     8.7212    31.6034    9.21766   97.10906    24.5021 1.8357e+01     23.199     1.0944 0.0000e+00
     22.000     8.7261    31.6017    9.21155   97.05075    24.5000 2.1459e+01     22.261     1.0492 0.0000e+00
     21.000     8.7334    31.5976    9.21817   97.13250    24.4957 2.5454e+01     21.206     1.0704 0.0000e+00
     20.000     8.7373    31.5954    9.21982   97.17332    24.4933 3.0045e+01     20.207     1.0447 0.0000e+00
     19.000     8.7460    31.5929    9.22305   97.24211    24.4903 3.5523e+01     19.135     1.0535 0.0000e+00
     18.000     8.7586    31.5873    9.23023   97.33796    24.4842 4.2146e+01     18.150     1.1107 0.0000e+00
     17.000     8.7731    31.5801    9.22870   97.33936    24.4764 5.0528e+01     17.159     1.1089 0.0000e+00
     16.000     8.7831    31.5743    9.23377   97.40203    24.4702 5.9933e+01     16.139     1.0652 0.0000e+00
     15.000     8.7931    31.5684    9.23247   97.40092    24.4640 7.1513e+01     15.162     1.0800 0.0000e+00
     14.000     8.7979    31.5655    9.23161   97.40690    24.4609 8.5323e+01     14.138     1.1704 0.0000e+00
     13.000     8.8053    31.5619    9.23809   97.50174    24.4570 1.0114e+02     13.128     1.2130 0.0000e+00
     12.000     8.8138    31.5582    9.24282   97.57200    24.4529 1.2048e+02     12.118     1.1643 0.0000e+00
     11.000     8.8282    31.5519    9.24157   97.58541    24.4460 1.4421e+02     11.104     1.0940 0.0000e+00
     10.000     8.8385    31.5450    9.24373   97.63100    24.4388 1.7252e+02     10.085     1.0903 0.0000e+00
      9.000     8.8525    31.5390    9.24895   97.70311    24.4322 2.0880e+02      9.070     1.0345 0.0000e+00
      8.000     8.8639    31.5335    9.25079   97.74066    24.4262 2.4647e+02      8.050     0.9702 0.0000e+00
      7.000     8.8717    31.5282    9.25448   97.79955    24.4206 2.9728e+02      7.087     0.8999 0.0000e+00
      6.000     8.8805    31.5253    9.25434   97.81459    24.4171 3.4405e+02      6.000     0.8826 0.0000e+00
      5.000     8.8898    31.5209    9.24456   97.75461    24.4123 3.7412e+02      5.062     0.8879 0.0000e+00
      4.000     8.8980    31.5167    9.24132   97.77129    24.4076 2.8821e+02      4.029     0.8618 0.0000e+00
      3.000     8.9126    31.5163    9.24440   97.94879    24.4061 1.6961e+02      3.002     0.8785 0.0000e+00
      2.000     8.9350    31.5069    9.18771   97.34054    24.3951 1.4224e+02      2.078     0.8142 0.0000e+00
      1.000     8.9759    31.5089    9.67943   96.47943    24.3925 2.3604e+02      1.109     0.7321 0.0000e+00
