* Sea-Bird SBE19plus Data File:
* FileName = C:\data\otf\2007\ctd-07114.hex
* Software Version 1.55
* Temperature SN =  5061
* Conductivity SN =  5061
* System UpLoad Time = Aug 15 2007 16:42:27
* ds
* SeacatPlus V 1.6a  SERIAL NO. 5061    15 Aug 2007  15:31:53
* vbatt = 10.9, vlith =  8.7, ioper =  61.6 ma, ipump =  57.5 ma, 
* iext01 =  95.2 ma
* iext23 =  58.1 ma
* 
* status = not logging
* number of scans to average = 1
* samples = 153039, free = 288466, casts = 154
* mode = profile, minimum cond freq = 3000, pump delay = 60 sec
* autorun = no, ignore magnetic switch = no
* battery type = alkaline, battery cutoff =  7.3 volts
* pressure sensor = strain gauge, range = 870.0
* SBE 38 = no, Gas Tension Device = no
* Ext Volt 0 = yes, Ext Volt 1 = yes, Ext Volt 2 = yes, Ext Volt 3 = yes
* echo commands = yes
* output format = raw HEX
* S>
* 
* SeacatPlus V 1.6a  SERIAL NO. 5061    15 Aug 2007  15:32:18
* temperature:  05-oct-06
*     TA0 = 1.254184e-03
*     TA1 = 2.596730e-04
*     TA2 = 5.165612e-07
*     TA3 = 1.318931e-07
*     TOFFSET = 0.000000e+00
* conductivity:  05-oct-06
*     G = -9.978144e-01
*     H = 1.555200e-01
*     I = -4.839108e-04
*     J = 6.121100e-05
*     CF0 = 2.539936e+03
*     CPCOR = -9.570000e-08
*     CTCOR = 3.250000e-06
*     CSLOPE = 1.000000e+00
* pressure S/N = 2362539, range = 870 psia:  24-aug-06
*     PA0 = 2.171091e-01
*     PA1 = 2.647085e-03
*     PA2 = 1.419397e-11
*     PTCA0 = 5.242437e+05
*     PTCA1 = 7.545345e+00
*     PTCA2 = -1.835354e-01
*     PTCB0 = 2.537125e+01
*     PTCB1 = -1.750000e-03
*     PTCB2 = 0.000000e+00
*     PTEMPA0 = -5.753989e+01
*     PTEMPA1 = 5.235813e+01
*     PTEMPA2 = -4.015521e-02
*     POFFSET = 0.000000e+00
* volt 0: offset = -4.682842e-02, slope = 1.249147e+00
* volt 1: offset = -4.695158e-02, slope = 1.248145e+00
* volt 2: offset = -4.685263e-02, slope = 1.248783e+00
* volt 3: offset = -4.690316e-02, slope = 1.249508e+00
*     EXTFREQSF = 1.000002e+00
* dh
* cast 114 22 Jul 2007 12:58:56 samples 75707 to 76936, avg = 1, stop = mag switch
* S> 
# nquan = 10
# nvalues = 171                         
# units = specified
# name 0 = depSM: Depth [salt water, m]
# name 1 = tv290C: Temperature [ITS-90, deg C]
# name 2 = sal00: Salinity [PSU]
# name 3 = sbeox0Mg/L: Oxygen, SBE 43 [mg/l]
# name 4 = sbeox0PS: Oxygen, SBE 43 [% saturation]
# name 5 = sigma-t00: Density [sigma-t, Kg/m^3 ]
# name 6 = par: PAR/Irradiance, Biospherical/Licor
# name 7 = prdM: Pressure, Strain Gauge [db]
# name 8 = flECO-AFL: Fluorescence, Wetlab ECO-AFL/FL [mg/m^3]
# name 9 = flag: flag
# span 0 =      1.000,     88.000       
# span 1 =     8.5212,    10.3208       
# span 2 =    30.2390,    31.5177       
# span 3 =    8.69594,    9.57651       
# span 4 =   94.00106,  101.84268       
# span 5 =    23.1847,    24.4636       
# span 6 = 1.5484e+00, 1.0547e+02       
# span 7 =      1.059,     88.647       
# span 8 =     0.9478,     1.7556       
# span 9 = 0.0000e+00, 0.0000e+00       
# interval = meters: 1                  
# start_time = Jul 22 2007 12:58:56
# bad_flag = -9.990e-29
# sensor 0 = Frequency 0  temperature, 5061, 05-Oct-06
# sensor 1 = Frequency 1  conductivity, 5061, 05-Oct-06, cpcor = -9.5700e-08
# sensor 2 = Pressure Number
# sensor 3 = Extrnl Volt  0  irradiance (PAR), primary, 4751, 08/10/06
# sensor 4 = Extrnl Volt  1  Oxygen, SBE, primary, 1081, 10/24/06
# sensor 5 = Extrnl Volt  2  WET Labs, ECO_AFL
# sensor 6 = Extrnl Volt  3  userpoly 0, 0627, 10/11/06
# datcnv_date = Oct 15 2007 14:49:48, 5.37e
# datcnv_in = I:\bob d\OTF_GEM\2007\ctd-07114.hex I:\Willette\OTF\CTD\5061.con
# datcnv_skipover = 0
# filter_date = Oct 15 2007 15:02:31, 5.37e
# filter_in = I:\Willette\OTF\CTD\2007\CTD Data\ctd-07114.cnv
# filter_low_pass_tc_A = 1.000
# filter_low_pass_tc_B = 0.150
# filter_low_pass_A_vars = prdM
# filter_low_pass_B_vars =
# loopedit_date = Oct 15 2007 15:06:52, 5.37e
# loopedit_in = I:\Willette\OTF\CTD\2007\CTD Data\ctd-07114.cnv
# loopedit_minVelocity = 0.250                                                                                            
# loopedit_surfaceSoak: minDepth = 5.0, maxDepth = 20, useDeckPress = 1                                                   
# loopedit_excl_bad_scans = yes
# alignctd_date = Oct 15 2007 15:14:18, 5.37e
# alignctd_in = I:\Willette\OTF\CTD\2007\CTD Data\ctd-07114.cnv
# alignctd_adv = tv290C 0.500, sbeox0Mg/L 4.000, sbeox0PS 4.000                                                                                                                                                                      
# binavg_date = Oct 15 2007 15:18:47, 5.37e
# binavg_in = I:\Willette\OTF\CTD\2007\CTD Data\ctd-07114.cnv
# binavg_bintype = meters
# binavg_binsize = 1
# binavg_excl_bad_scans = yes
# binavg_skipover = 0
# binavg_surface_bin = no, min = 0.000, max = 0.000, value = 0.000
# file_type = ascii
*END*
      5.000    10.3154    30.2527    8.69594   94.00106    23.1963 3.5296e+01      5.129     1.3666 0.0000e+00
      6.000    10.2961    30.2567    8.75313   94.49209    23.2010 2.7164e+01      6.139     1.3923 0.0000e+00
      7.000    10.2734    30.2693    8.83413   95.15471    23.2148 2.1289e+01      7.164     1.3249 0.0000e+00
      8.000    10.2641    30.2800    8.85921   95.30487    23.2252 1.6480e+01      8.090     1.2551 0.0000e+00
      9.000    10.2458    30.2781    8.86740   95.24729    23.2258 1.2834e+01      9.156     1.2050 0.0000e+00
     10.000    10.1776    30.2626    8.89437   95.46062    23.2179 1.0327e+01     10.096     1.1826 0.0000e+00
     11.000    10.0811    30.3088    8.91015   95.50908    23.2695 8.3304e+00     11.044     1.1461 0.0000e+00
     12.000     9.9882    30.3981    8.94540   95.61139    23.3551 6.7406e+00     12.103     1.0463 0.0000e+00
     13.000     9.9017    30.4789    8.97400   95.70789    23.4330 5.5445e+00     13.135     1.0032 0.0000e+00
     14.000     9.8528    30.5356    9.02379   96.07209    23.4884 4.6245e+00     14.151     0.9674 0.0000e+00
     15.000     9.7493    30.5698    9.05094   96.25008    23.5239 3.9302e+00     15.198     0.9478 0.0000e+00
     16.000     9.5949    30.6689    9.01199   95.72940    23.6228 3.3924e+00     16.191     0.9653 0.0000e+00
     17.000     9.4742    30.8017    9.02028   95.70859    23.7488 3.0036e+00     17.190     0.9933 0.0000e+00
     18.000     9.3798    30.9260    9.06089   96.03736    23.8612 2.7155e+00     18.069     1.0106 0.0000e+00
     19.000     9.2993    31.0532    9.09365   96.24602    23.9775 2.4731e+00     19.129     1.0334 0.0000e+00
     20.000     9.2213    31.1273    9.11852   96.41611    24.0468 2.2984e+00     20.251     1.0443 0.0000e+00
     21.000     9.1517    31.1954    9.10534   96.20247    24.1109 2.1671e+00     21.207     1.0522 0.0000e+00
     22.000     9.0818    31.2500    9.09594   96.02294    24.1643 2.0645e+00     22.215     1.0660 0.0000e+00
     23.000     9.0143    31.2892    9.13365   96.36294    24.2056 1.9867e+00     23.159     1.0740 0.0000e+00
     24.000     8.9659    31.3396    9.15362   96.49199    24.2549 1.9194e+00     24.172     1.0649 0.0000e+00
     25.000     8.9200    31.3599    9.18429   96.70579    24.2777 1.8647e+00     25.280     1.0466 0.0000e+00
     26.000     8.8781    31.3749    9.22003   97.01657    24.2959 1.8188e+00     26.236     1.2867 0.0000e+00
     27.000     8.8408    31.3972    9.24445   97.24374    24.3197 1.7772e+00     27.328     1.7556 0.0000e+00
     28.000     8.7968    31.4018    9.22944   97.03729    24.3287 1.7448e+00     28.354     1.6884 0.0000e+00
     29.000     8.7548    31.4175    9.21239   96.82130    24.3471 1.7184e+00     29.276     1.6392 0.0000e+00
     30.000     8.7200    31.4404    9.23016   96.99833    24.3713 1.6958e+00     30.204     1.6347 0.0000e+00
     31.000     8.7053    31.4639    9.24771   97.17886    24.3940 1.6751e+00     31.225     1.6210 0.0000e+00
     32.000     8.6805    31.4713    9.22264   96.89671    24.4023 1.6582e+00     32.384     1.5944 0.0000e+00
     33.000     8.6583    31.4789    9.22825   96.94090    24.4120 1.6441e+00     33.325     1.5986 0.0000e+00
     34.000     8.6501    31.4922    9.24587   97.12595    24.4249 1.6314e+00     34.211     1.5821 0.0000e+00
     35.000     8.6477    31.5034    9.19952   96.62973    24.4344 1.6199e+00     35.356     1.6009 0.0000e+00
     36.000     8.6405    31.4954    9.17996   96.41256    24.4286 1.6115e+00     36.374     1.6234 0.0000e+00
     37.000     8.6314    31.4987    9.20367   96.65845    24.4325 1.6030e+00     37.267     1.6291 0.0000e+00
     38.000     8.6298    31.5121    9.23134   96.94646    24.4441 1.5958e+00     38.328     1.6195 0.0000e+00
     39.000     8.6256    31.5053    9.23251   96.95878    24.4388 1.5900e+00     39.436     1.6323 0.0000e+00
     40.000     8.6218    31.5047    9.22091   96.83574    24.4393 1.5845e+00     40.409     1.6363 0.0000e+00
     41.000     8.6203    31.5058    9.23953   97.03124    24.4404 1.5802e+00     41.375     1.6530 0.0000e+00
     42.000     8.6177    31.5088    9.25974   97.24414    24.4431 1.5762e+00     42.361     1.6727 0.0000e+00
     43.000     8.6177    31.5129    9.24867   97.12387    24.4465 1.5728e+00     43.470     1.6896 0.0000e+00
     44.000     8.6165    31.5132    9.25234   97.15147    24.4467 1.5699e+00     44.426     1.7016 0.0000e+00
     45.000     8.6159    31.5161    9.30223   97.67079    24.4492 1.5676e+00     45.384     1.6958 0.0000e+00
     46.000     8.6162    31.5177    9.36202   98.29622    24.4505 1.5652e+00     46.431     1.7031 0.0000e+00
     47.000     8.6160    31.5163    9.40778   98.77510    24.4493 1.5627e+00     47.473     1.7227 0.0000e+00
     48.000     8.6129    31.5033    9.43669   99.07611    24.4394 1.5613e+00     48.439     1.7103 0.0000e+00
     49.000     8.6113    31.5026    9.45566   99.27161    24.4394 1.5595e+00     49.461     1.6867 0.0000e+00
     50.000     8.6102    31.5016    9.46820   99.40418    24.4386 1.5586e+00     50.442     1.6841 0.0000e+00
     51.000     8.6098    31.5024    9.47822   99.50869    24.4394 1.5570e+00     51.482     1.6852 0.0000e+00
     52.000     8.6084    31.5006    9.48893   99.62142    24.4381 1.5562e+00     52.491     1.6929 0.0000e+00
     53.000     8.6072    31.5016    9.49509   99.68627    24.4391 1.5551e+00     53.485     1.6996 0.0000e+00
     54.000     8.6076    31.5013    9.49987   99.73565    24.4388 1.5551e+00     54.591     1.6998 0.0000e+00
     55.000     8.6073    31.5014    9.50827   99.82219    24.4390 1.5541e+00     55.424     1.7106 0.0000e+00
     56.000     8.6077    31.5022    9.51532   99.89626    24.4396 1.5531e+00     56.573     1.6817 0.0000e+00
     57.000     8.6075    31.5009    9.52446   99.99269    24.4385 1.5531e+00     57.562     1.6813 0.0000e+00
     58.000     8.6068    31.5013    9.52724  100.02014    24.4390 1.5525e+00     58.456     1.6771 0.0000e+00
     59.000     8.6064    31.5020    9.52760  100.02286    24.4396 1.5522e+00     59.620     1.6673 0.0000e+00
     60.000     8.6068    31.5015    9.52736  100.01463    24.4392 1.5518e+00     60.588     1.6604 0.0000e+00
     61.000     8.6062    31.5007    9.52683  100.01065    24.4385 1.5514e+00     61.510     1.6593 0.0000e+00
     62.000     8.6064    31.5024    9.53156  100.06203    24.4400 1.5515e+00     62.587     1.6411 0.0000e+00
     63.000     8.6030    31.4998    9.53115  100.06107    24.4382 1.5509e+00     63.581     1.6458 0.0000e+00
     64.000     8.6038    31.5017    9.52810  100.02920    24.4399 1.5506e+00     64.597     1.6455 0.0000e+00
     65.000     8.6047    31.5023    9.53579  100.10977    24.4402 1.5507e+00     65.615     1.6439 0.0000e+00
     66.000     8.6060    31.5015    9.54197  100.17448    24.4392 1.5509e+00     66.763     1.6353 0.0000e+00
     67.000     8.6060    31.5016    9.54253  100.18153    24.4394 1.5503e+00     67.539     1.6211 0.0000e+00
     68.000     8.6061    31.5013    9.55184  100.27234    24.4391 1.5504e+00     68.684     1.6325 0.0000e+00
     69.000     8.6059    31.5017    9.55279  100.27779    24.4395 1.5503e+00     69.689     1.6344 0.0000e+00
     70.000     8.6062    31.5012    9.55411  100.28366    24.4390 1.5501e+00     70.662     1.6256 0.0000e+00
     71.000     8.6034    31.5000    9.55541  100.29606    24.4382 1.5500e+00     71.723     1.6238 0.0000e+00
     72.000     8.6016    31.5000    9.55405  100.28004    24.4386 1.5499e+00     72.672     1.6216 0.0000e+00
     73.000     8.5983    31.4994    9.55983  100.34112    24.4385 1.5498e+00     73.693     1.5983 0.0000e+00
     74.000     8.5975    31.5011    9.56372  100.37951    24.4403 1.5497e+00     74.716     1.5830 0.0000e+00
     75.000     8.5968    31.5001    9.56444  100.38063    24.4395 1.5496e+00     75.704     1.5788 0.0000e+00
     76.000     8.5971    31.5002    9.56579  100.39098    24.4396 1.5497e+00     76.751     1.5823 0.0000e+00
     77.000     8.5960    31.5001    9.56990  100.42855    24.4395 1.5496e+00     77.801     1.5964 0.0000e+00
     78.000     8.5935    31.4990    9.56791  100.37694    24.4390 1.5494e+00     78.671     1.5861 0.0000e+00
     79.000     8.5913    31.5001    9.56779  100.35413    24.4403 1.5496e+00     79.789     1.5772 0.0000e+00
     80.000     8.5888    31.4992    9.57406  100.41535    24.4397 1.5493e+00     80.755     1.5698 0.0000e+00
     81.000     8.5736    31.4956    9.57651  100.41791    24.4385 1.5493e+00     81.762     1.5610 0.0000e+00
     82.000     8.5646    31.5026    9.57529  100.36397    24.4460 1.5490e+00     82.806     1.5440 0.0000e+00
     83.000     8.5626    31.5058    9.57298  100.32532    24.4492 1.5494e+00     83.865     1.5220 0.0000e+00
     84.000     8.5524    31.5007    9.57364  100.32522    24.4454 1.5494e+00     84.718     1.5274 0.0000e+00
     85.000     8.5329    31.5081    9.56891  100.27231    24.4546 1.5492e+00     85.808     1.4892 0.0000e+00
     86.000     8.5254    31.5117    9.56768  100.25927    24.4587 1.5489e+00     86.779     1.4787 0.0000e+00
     87.000     8.5216    31.5155    9.56653  100.25086    24.4627 1.5490e+00     87.754     1.4719 0.0000e+00
     88.000     8.5212    31.5164    9.56343  100.21787    24.4635 1.5494e+00     88.647     1.5011 0.0000e+00
     87.000     8.5217    31.5163    9.56117  100.20147    24.4634 1.5490e+00     87.810     1.4423 0.0000e+00
     86.000     8.5225    31.5166    9.56658  100.26805    24.4636 1.5489e+00     86.842     1.4272 0.0000e+00
     85.000     8.5263    31.5155    9.56080  100.22259    24.4623 1.5486e+00     85.786     1.4525 0.0000e+00
     84.000     8.5312    31.5147    9.56344  100.26568    24.4609 1.5489e+00     84.759     1.4699 0.0000e+00
     83.000     8.5366    31.5131    9.56351  100.29661    24.4589 1.5488e+00     83.869     1.4783 0.0000e+00
     82.000     8.5469    31.5129    9.56307  100.32550    24.4576 1.5489e+00     82.629     1.4550 0.0000e+00
     81.000     8.5606    31.5093    9.56583  100.36660    24.4527 1.5490e+00     81.820     1.4470 0.0000e+00
     80.000     8.5723    31.5057    9.56207  100.33490    24.4480 1.5489e+00     80.782     1.4904 0.0000e+00
     79.000     8.5811    31.5027    9.55806  100.29813    24.4441 1.5487e+00     79.749     1.5325 0.0000e+00
     78.000     8.5841    31.5014    9.55948  100.32972    24.4426 1.5484e+00     78.763     1.4875 0.0000e+00
     77.000     8.5867    31.5007    9.56584  100.40271    24.4417 1.5486e+00     77.729     1.4729 0.0000e+00
     76.000     8.5943    31.5019    9.56252  100.37070    24.4416 1.5485e+00     76.756     1.5032 0.0000e+00
     75.000     8.5964    31.5001    9.55641  100.30931    24.4396 1.5486e+00     75.714     1.4959 0.0000e+00
     74.000     8.5979    31.5004    9.55961  100.34343    24.4397 1.5486e+00     74.692     1.4832 0.0000e+00
     73.000     8.5990    31.5008    9.56014  100.34862    24.4399 1.5485e+00     73.738     1.4827 0.0000e+00
     72.000     8.5990    31.5003    9.56269  100.37372    24.4393 1.5485e+00     72.667     1.5103 0.0000e+00
     71.000     8.5988    31.5003    9.56418  100.39256    24.4394 1.5487e+00     71.662     1.4991 0.0000e+00
     70.000     8.5981    31.5002    9.56439  100.40740    24.4394 1.5484e+00     70.678     1.5042 0.0000e+00
     69.000     8.6005    31.5019    9.56059  100.36920    24.4405 1.5486e+00     69.697     1.4951 0.0000e+00
     68.000     8.6059    31.5029    9.55704  100.33281    24.4405 1.5488e+00     68.564     1.4720 0.0000e+00
     67.000     8.6055    31.5018    9.55945  100.35832    24.4396 1.5486e+00     67.679     1.4896 0.0000e+00
     66.000     8.6055    31.5024    9.55703  100.33877    24.4401 1.5490e+00     66.656     1.5059 0.0000e+00
     65.000     8.6062    31.5030    9.55811  100.35091    24.4405 1.5488e+00     65.614     1.5235 0.0000e+00
     64.000     8.6089    31.5030    9.55498  100.31466    24.4401 1.5489e+00     64.601     1.5117 0.0000e+00
     63.000     8.6084    31.5024    9.55817  100.34779    24.4396 1.5491e+00     63.608     1.5258 0.0000e+00
     62.000     8.6068    31.5022    9.55481  100.31513    24.4396 1.5495e+00     62.603     1.4921 0.0000e+00
     61.000     8.6070    31.5030    9.56049  100.37398    24.4404 1.5493e+00     61.563     1.5008 0.0000e+00
     60.000     8.6080    31.5028    9.55641  100.33249    24.4400 1.5499e+00     60.588     1.4891 0.0000e+00
     59.000     8.6079    31.5024    9.54887  100.25635    24.4397 1.5501e+00     59.596     1.5038 0.0000e+00
     58.000     8.6090    31.5022    9.55118  100.27992    24.4394 1.5501e+00     58.540     1.5359 0.0000e+00
     57.000     8.6101    31.5016    9.55616  100.33232    24.4388 1.5507e+00     57.534     1.4754 0.0000e+00
     56.000     8.6094    31.5021    9.55632  100.33562    24.4393 1.5514e+00     56.563     1.4840 0.0000e+00
     55.000     8.6100    31.5020    9.55560  100.33002    24.4391 1.5519e+00     55.475     1.5033 0.0000e+00
     54.000     8.6105    31.5020    9.55064  100.27627    24.4390 1.5525e+00     54.488     1.5296 0.0000e+00
     53.000     8.6114    31.5019    9.54921  100.26031    24.4388 1.5532e+00     53.432     1.4636 0.0000e+00
     52.000     8.6109    31.5014    9.55546  100.32540    24.4384 1.5537e+00     52.485     1.4823 0.0000e+00
     51.000     8.6104    31.5015    9.55827  100.35431    24.4386 1.5549e+00     51.471     1.4665 0.0000e+00
     50.000     8.6101    31.5011    9.56166  100.38921    24.4383 1.5566e+00     50.498     1.4726 0.0000e+00
     49.000     8.6100    31.5014    9.55578  100.32675    24.4386 1.5575e+00     49.465     1.4645 0.0000e+00
     48.000     8.6094    31.5016    9.55494  100.31818    24.4389 1.5589e+00     48.462     1.4579 0.0000e+00
     47.000     8.6094    31.5014    9.55440  100.30904    24.4387 1.5606e+00     47.514     1.4691 0.0000e+00
     46.000     8.6092    31.5010    9.55030  100.26611    24.4384 1.5629e+00     46.377     1.4884 0.0000e+00
     45.000     8.6092    31.4988    9.55369  100.30068    24.4368 1.5651e+00     45.462     1.4662 0.0000e+00
     44.000     8.6090    31.4964    9.55390  100.30207    24.4348 1.5680e+00     44.442     1.4490 0.0000e+00
     43.000     8.6089    31.4962    9.54908  100.25231    24.4348 1.5713e+00     43.438     1.4325 0.0000e+00
     42.000     8.6093    31.4935    9.55275  100.29569    24.4325 1.5750e+00     42.365     1.4291 0.0000e+00
     41.000     8.6103    31.4919    9.55250  100.29394    24.4312 1.5793e+00     41.456     1.3800 0.0000e+00
     40.000     8.6138    31.4872    9.56269  100.40416    24.4270 1.5840e+00     40.369     1.4280 0.0000e+00
     39.000     8.6145    31.4862    9.55828  100.36139    24.4261 1.5897e+00     39.363     1.3941 0.0000e+00
     38.000     8.6168    31.4837    9.56217  100.40689    24.4239 1.5964e+00     38.310     1.4042 0.0000e+00
     37.000     8.6188    31.4811    9.56678  100.46989    24.4215 1.6035e+00     37.287     1.3690 0.0000e+00
     36.000     8.6204    31.4800    9.56363  100.44997    24.4204 1.6121e+00     36.400     1.3359 0.0000e+00
     35.000     8.6259    31.4781    9.56140  100.43948    24.4184 1.6224e+00     35.313     1.3492 0.0000e+00
     34.000     8.6353    31.4721    9.55956  100.42896    24.4123 1.6342e+00     34.307     1.3427 0.0000e+00
     33.000     8.6419    31.4668    9.56056  100.45509    24.4070 1.6474e+00     33.326     1.3246 0.0000e+00
     32.000     8.6466    31.4629    9.56300  100.51108    24.4033 1.6635e+00     32.253     1.3238 0.0000e+00
     31.000     8.6527    31.4595    9.56578  100.59778    24.3998 1.6821e+00     31.275     1.3125 0.0000e+00
     30.000     8.6644    31.4541    9.56641  100.70297    24.3942 1.7046e+00     30.259     1.3684 0.0000e+00
     29.000     8.6793    31.4476    9.56169  100.74439    24.3872 1.7289e+00     29.286     1.3702 0.0000e+00
     28.000     8.7163    31.4350    9.55933  100.77717    24.3731 1.7585e+00     28.270     1.3497 0.0000e+00
     27.000     8.7701    31.4133    9.56126  100.86421    24.3488 1.7951e+00     27.204     1.4143 0.0000e+00
     26.000     8.8068    31.3901    9.55291  100.85776    24.3239 1.8386e+00     26.242     1.3950 0.0000e+00
     25.000     8.8307    31.3789    9.55063  100.91169    24.3113 1.8897e+00     25.264     1.3910 0.0000e+00
     24.000     8.8610    31.3674    9.55079  101.04702    24.2980 1.9491e+00     24.248     1.4233 0.0000e+00
     23.000     8.9088    31.3524    9.55335  101.24071    24.2799 2.0243e+00     23.165     1.3983 0.0000e+00
     22.000     8.9492    31.3344    9.54922  101.30105    24.2598 2.1192e+00     22.193     1.3550 0.0000e+00
     21.000     9.0160    31.3096    9.53974  101.30452    24.2321 2.2317e+00     21.220     1.3659 0.0000e+00
     20.000     9.0958    31.2604    9.53405  101.35602    24.1818 2.3653e+00     20.207     1.3600 0.0000e+00
     19.000     9.1641    31.1948    9.53802  101.54789    24.1185 2.5371e+00     19.183     1.2675 0.0000e+00
     18.000     9.2376    31.1201    9.54015  101.73364    24.0500 2.7854e+00     18.185     1.2441 0.0000e+00
     17.000     9.3125    31.0367    9.53139  101.84268    23.9734 3.1120e+00     17.222     1.2302 0.0000e+00
     16.000     9.4288    30.8984    9.51649  101.83479    23.8484 3.5305e+00     16.208     1.1776 0.0000e+00
     15.000     9.5732    30.7612    9.49765  101.81187    23.7199 4.0880e+00     15.218     1.0988 0.0000e+00
     14.000     9.7121    30.6498    9.47735  101.66568    23.6086 4.9272e+00     14.197     1.0297 0.0000e+00
     13.000     9.8554    30.5307    9.45052  101.40908    23.4893 5.8424e+00     13.183     0.9824 0.0000e+00
     12.000 -9.990e-29 -9.990e-29 -9.990e-29 -9.990e-29 -9.990e-29 -9.990e-29 -9.990e-29 -9.990e-29 -9.990e-29
     11.000     9.9810    30.4253    9.37829  100.99396    23.3864 9.2369e+00     10.729     1.1952 0.0000e+00
     10.000    10.0335    30.3812    9.35684  100.98550    23.3445 1.0663e+01     10.045     1.2521 0.0000e+00
      9.000    10.1181    30.3460    9.34812  100.98577    23.3057 1.3131e+01      9.102     1.2682 0.0000e+00
      8.000    10.2149    30.2970    9.33362  100.86607    23.2492 1.6111e+01      8.010     1.3341 0.0000e+00
      7.000    10.2357    30.2896    9.32183  100.75555    23.2392 2.0147e+01      7.049     1.2927 0.0000e+00
      6.000    10.2445    30.2832    9.32439  100.81721    23.2321 2.5503e+01      6.089     1.3308 0.0000e+00
      5.000    10.2545    30.2803    9.32251  100.84733    23.2284 3.2677e+01      5.023     1.3309 0.0000e+00
      4.000    10.2731    30.2733    9.32611  100.91715    23.2204 4.2402e+01      4.047     1.4055 0.0000e+00
      3.000    10.2987    30.2629    9.32333  100.89385    23.2082 5.2504e+01      3.025     1.4711 0.0000e+00
      2.000    10.3145    30.2537    9.29727  100.59459    23.1982 6.4621e+01      2.036     1.4748 0.0000e+00
      1.000    10.3208    30.2390    9.18691   99.36928    23.1847 1.0547e+02      1.059     1.4488 0.0000e+00
