* Sea-Bird SBE19plus Data File:
* FileName = C:\data\otf\2007\ctd-07083.hex
* Software Version 1.55
* Temperature SN =  5061
* Conductivity SN =  5061
* System UpLoad Time = Aug 15 2007 16:22:28
* ds
* SeacatPlus V 1.6a  SERIAL NO. 5061    15 Aug 2007  15:31:53
* vbatt = 10.9, vlith =  8.7, ioper =  61.6 ma, ipump =  57.5 ma, 
* iext01 =  95.2 ma
* iext23 =  58.1 ma
* 
* status = not logging
* number of scans to average = 1
* samples = 153039, free = 288466, casts = 154
* mode = profile, minimum cond freq = 3000, pump delay = 60 sec
* autorun = no, ignore magnetic switch = no
* battery type = alkaline, battery cutoff =  7.3 volts
* pressure sensor = strain gauge, range = 870.0
* SBE 38 = no, Gas Tension Device = no
* Ext Volt 0 = yes, Ext Volt 1 = yes, Ext Volt 2 = yes, Ext Volt 3 = yes
* echo commands = yes
* output format = raw HEX
* S>
* 
* SeacatPlus V 1.6a  SERIAL NO. 5061    15 Aug 2007  15:32:18
* temperature:  05-oct-06
*     TA0 = 1.254184e-03
*     TA1 = 2.596730e-04
*     TA2 = 5.165612e-07
*     TA3 = 1.318931e-07
*     TOFFSET = 0.000000e+00
* conductivity:  05-oct-06
*     G = -9.978144e-01
*     H = 1.555200e-01
*     I = -4.839108e-04
*     J = 6.121100e-05
*     CF0 = 2.539936e+03
*     CPCOR = -9.570000e-08
*     CTCOR = 3.250000e-06
*     CSLOPE = 1.000000e+00
* pressure S/N = 2362539, range = 870 psia:  24-aug-06
*     PA0 = 2.171091e-01
*     PA1 = 2.647085e-03
*     PA2 = 1.419397e-11
*     PTCA0 = 5.242437e+05
*     PTCA1 = 7.545345e+00
*     PTCA2 = -1.835354e-01
*     PTCB0 = 2.537125e+01
*     PTCB1 = -1.750000e-03
*     PTCB2 = 0.000000e+00
*     PTEMPA0 = -5.753989e+01
*     PTEMPA1 = 5.235813e+01
*     PTEMPA2 = -4.015521e-02
*     POFFSET = 0.000000e+00
* volt 0: offset = -4.682842e-02, slope = 1.249147e+00
* volt 1: offset = -4.695158e-02, slope = 1.248145e+00
* volt 2: offset = -4.685263e-02, slope = 1.248783e+00
* volt 3: offset = -4.690316e-02, slope = 1.249508e+00
*     EXTFREQSF = 1.000002e+00
* dh
* cast  83 16 Jul 2007 04:43:14 samples 54113 to 54332, avg = 4, stop = mag switch
* S> 
# nquan = 10
# nvalues = 105                         
# units = specified
# name 0 = depSM: Depth [salt water, m]
# name 1 = tv290C: Temperature [ITS-90, deg C]
# name 2 = sal00: Salinity [PSU]
# name 3 = sbeox0Mg/L: Oxygen, SBE 43 [mg/l]
# name 4 = sbeox0PS: Oxygen, SBE 43 [% saturation]
# name 5 = sigma-t00: Density [sigma-t, Kg/m^3 ]
# name 6 = par: PAR/Irradiance, Biospherical/Licor
# name 7 = prdM: Pressure, Strain Gauge [db]
# name 8 = flECO-AFL: Fluorescence, Wetlab ECO-AFL/FL [mg/m^3]
# name 9 = flag: flag
# span 0 =      1.000,     55.000       
# span 1 =     9.2231,     9.4996       
# span 2 =    30.4062,    30.7471       
# span 3 =    8.76575,   10.52698       
# span 4 =   92.95154,  101.29189       
# span 5 =    23.4502,    23.7558       
# span 6 = 1.5491e+00, 4.1964e+00       
# span 7 =      1.946,     54.455       
# span 8 =     0.6570,     1.0185       
# span 9 = 0.0000e+00, 0.0000e+00       
# interval = meters: 1                  
# start_time = Jul 16 2007 04:43:14
# bad_flag = -9.990e-29
# sensor 0 = Frequency 0  temperature, 5061, 05-Oct-06
# sensor 1 = Frequency 1  conductivity, 5061, 05-Oct-06, cpcor = -9.5700e-08
# sensor 2 = Pressure Number
# sensor 3 = Extrnl Volt  0  irradiance (PAR), primary, 4751, 08/10/06
# sensor 4 = Extrnl Volt  1  Oxygen, SBE, primary, 1081, 10/24/06
# sensor 5 = Extrnl Volt  2  WET Labs, ECO_AFL
# sensor 6 = Extrnl Volt  3  userpoly 0, 0627, 10/11/06
# datcnv_date = Oct 15 2007 14:49:46, 5.37e
# datcnv_in = I:\bob d\OTF_GEM\2007\ctd-07083.hex I:\Willette\OTF\CTD\5061.con
# datcnv_skipover = 0
# filter_date = Oct 15 2007 15:02:27, 5.37e
# filter_in = I:\Willette\OTF\CTD\2007\CTD Data\ctd-07083.cnv
# filter_low_pass_tc_A = 1.000
# filter_low_pass_tc_B = 0.150
# filter_low_pass_A_vars = prdM
# filter_low_pass_B_vars =
# loopedit_date = Oct 15 2007 15:06:48, 5.37e
# loopedit_in = I:\Willette\OTF\CTD\2007\CTD Data\ctd-07083.cnv
# loopedit_minVelocity = 0.250                                                                                            
# loopedit_surfaceSoak: minDepth = 5.0, maxDepth = 20, useDeckPress = 1                                                   
# loopedit_excl_bad_scans = yes
# alignctd_date = Oct 15 2007 15:14:16, 5.37e
# alignctd_in = I:\Willette\OTF\CTD\2007\CTD Data\ctd-07083.cnv
# alignctd_adv = tv290C 0.500, sbeox0Mg/L 4.000, sbeox0PS 4.000                                                                                                                                                                      
# binavg_date = Oct 15 2007 15:18:45, 5.37e
# binavg_in = I:\Willette\OTF\CTD\2007\CTD Data\ctd-07083.cnv
# binavg_bintype = meters
# binavg_binsize = 1
# binavg_excl_bad_scans = yes
# binavg_skipover = 0
# binavg_surface_bin = no, min = 0.000, max = 0.000, value = 0.000
# file_type = ascii
*END*
      5.000     9.4196    30.4585    8.77430   93.04517    23.4966 1.7614e+00      5.300     0.6570 0.0000e+00
      6.000     9.4043    30.4831    8.76575   92.95154    23.5187 1.7023e+00      6.368     0.6899 0.0000e+00
      7.000     9.3956    30.5004    8.82698   93.59224    23.5347 1.6518e+00      7.369     0.6864 0.0000e+00
      8.000     9.3844    30.5080    8.95173   94.90313    23.5416 1.6240e+00      8.132     0.6865 0.0000e+00
      9.000     9.3646    30.5204    8.95487   94.92633    23.5528 1.6032e+00      9.037     0.7088 0.0000e+00
     10.000     9.3337    30.5415    8.98454   95.22351    23.5722 1.5872e+00     10.145     0.7031 0.0000e+00
     11.000     9.3115    30.5729    9.14913   96.96359    23.6006 1.5762e+00     11.049     0.6829 0.0000e+00
     12.000     9.3077    30.6045    9.26412   98.18462    23.6293 1.5699e+00     12.014     0.6857 0.0000e+00
     13.000     9.3063    30.6175    9.32979   98.87572    23.6411 1.5652e+00     13.083     0.7127 0.0000e+00
     14.000     9.2942    30.6240    9.38602   99.46659    23.6466 1.5609e+00     14.579     0.6707 0.0000e+00
     15.000     9.2948    30.6288    9.40060   99.62197    23.6515 1.5590e+00     15.344     0.6920 0.0000e+00
     16.000     9.2905    30.6362    9.42662   99.89836    23.6580 1.5571e+00     16.570     0.6984 0.0000e+00
     17.000     9.2803    30.6372    9.44237  100.06535    23.6592 1.5560e+00     17.648     0.6772 0.0000e+00
     18.000     9.2731    30.6445    9.45148  100.16177    23.6656 1.5550e+00     18.454     0.6767 0.0000e+00
     19.000     9.2671    30.6588    9.46154  100.26843    23.6782 1.5543e+00     19.365     0.7072 0.0000e+00
     20.000     9.2529    30.6727    9.47842  100.44909    23.6907 1.5536e+00     20.693     0.7589 0.0000e+00
     21.000     9.2546    30.6802    9.48112  100.47826    23.6971 1.5532e+00     21.426     0.7595 0.0000e+00
     22.000     9.2548    30.6875    9.48317  100.50069    23.7041 1.5529e+00     22.051     0.7462 0.0000e+00
     23.000     9.2512    30.6921    9.49130  100.58564    23.7079 1.5526e+00     23.519     0.7618 0.0000e+00
     24.000     9.2489    30.6957    9.49734  100.64876    23.7109 1.5525e+00     24.370     0.8015 0.0000e+00
     25.000     9.2466    30.7007    9.50321  100.71126    23.7152 1.5524e+00     25.225     0.7698 0.0000e+00
     26.000     9.2454    30.7049    9.51033  100.78664    23.7189 1.5523e+00     26.149     0.7865 0.0000e+00
     27.000     9.2462    30.7100    9.51561  100.84118    23.7233 1.5522e+00     27.228     0.7820 0.0000e+00
     28.000     9.2459    30.7108    9.51937  100.88178    23.7240 1.5526e+00     28.436     0.7867 0.0000e+00
     29.000     9.2462    30.7099    9.52511  100.93334    23.7231 1.5520e+00     29.195     0.7890 0.0000e+00
     30.000     9.2462    30.7107    9.53026  100.97503    23.7238 1.5522e+00     29.985     0.7440 0.0000e+00
     31.000     9.2458    30.7102    9.53470  101.02278    23.7234 1.5520e+00     31.355     0.7869 0.0000e+00
     32.000     9.2463    30.7108    9.53458  101.02102    23.7240 1.5521e+00     32.366     0.7948 0.0000e+00
     33.000     9.2467    30.7112    9.53774  101.05505    23.7243 1.5518e+00     33.205     0.7946 0.0000e+00
     34.000     9.2464    30.7112    9.54126  101.09412    23.7242 1.5517e+00     34.366     0.7978 0.0000e+00
     35.000     9.2446    30.7110    9.54264  101.10506    23.7239 1.5519e+00     35.794     0.8162 0.0000e+00
     36.000     9.2440    30.7150    9.53966  101.06740    23.7273 1.5521e+00     36.414     0.8213 0.0000e+00
     37.000     9.2439    30.7171    9.53959  101.06826    23.7290 1.5516e+00     37.222     0.8258 0.0000e+00
     38.000     9.2442    30.7192    9.54652  101.14074    23.7308 1.5517e+00     38.406     0.8211 0.0000e+00
     39.000     9.2433    30.7188    9.55288  101.20792    23.7304 1.5515e+00     39.359     0.8186 0.0000e+00
     40.000     9.2430    30.7194    9.55749  101.25725    23.7309 1.5515e+00     40.305     0.8002 0.0000e+00
     41.000     9.2379    30.7203    9.55798  101.26297    23.7318 1.5516e+00     41.242     0.7802 0.0000e+00
     42.000     9.2281    30.7216    9.55803  101.26436    23.7328 1.5516e+00     42.272     0.7945 0.0000e+00
     43.000     9.2280    30.7339    9.55665  101.24973    23.7435 1.5518e+00     43.246     0.8048 0.0000e+00
     44.000     9.2287    30.7420    9.54826  101.16144    23.7512 1.5513e+00     44.049     0.8391 0.0000e+00
     45.000     9.2281    30.7401    9.52534  100.91770    23.7495 1.5515e+00     45.350     0.8949 0.0000e+00
     46.000     9.2287    30.7405    9.53461  101.01501    23.7499 1.5514e+00     46.261     0.8731 0.0000e+00
     47.000     9.2276    30.7418    9.55333  101.21305    23.7509 1.5514e+00     47.274     0.8663 0.0000e+00
     48.000     9.2238    30.7414    9.55444  101.22473    23.7505 1.5518e+00     48.248     0.8770 0.0000e+00
     49.000     9.2239    30.7431    9.54846  101.16150    23.7521 1.5516e+00     49.094     0.9031 0.0000e+00
     50.000     9.2234    30.7461    9.54523  101.12766    23.7549 1.5514e+00     50.102     0.8748 0.0000e+00
     51.000     9.2231    30.7464    9.54461  101.12141    23.7552 1.5511e+00     51.027     0.8491 0.0000e+00
     52.000     9.2235    30.7470    9.54683  101.14517    23.7557 1.5511e+00     51.785     0.8758 0.0000e+00
     53.000     9.2238    30.7471    9.54285  101.10279    23.7558 1.5513e+00     52.427     0.8745 0.0000e+00
     54.000     9.2243    30.7466    9.54183  101.09157    23.7553 1.5511e+00     53.427     0.8698 0.0000e+00
     55.000     9.2240    30.7462    9.54352  101.11610    23.7550 1.5516e+00     54.455     0.9541 0.0000e+00
     54.000     9.2237    30.7463    9.55073  101.19703    23.7551 1.5510e+00     53.866     0.9911 0.0000e+00
     53.000     9.2255    30.7466    9.54622  101.15162    23.7553 1.5507e+00     53.001     0.9970 0.0000e+00
     52.000     9.2282    30.7453    9.54907  101.18189    23.7541 1.5505e+00     52.216     1.0017 0.0000e+00
     51.000     9.2292    30.7420    9.53911  101.07725    23.7510 1.5506e+00     51.213     1.0185 0.0000e+00
     50.000     9.2290    30.7415    9.54010  101.08791    23.7506 1.5504e+00     50.440     0.9982 0.0000e+00
     49.000     9.2291    30.7416    9.55426  101.23857    23.7506 1.5505e+00     49.098     0.9397 0.0000e+00
     48.000     9.2292    30.7407    9.55598  101.25647    23.7499 1.5504e+00     48.508     0.9930 0.0000e+00
     47.000     9.2313    30.7395    9.55698  101.26739    23.7489 1.5505e+00     47.392     1.0079 0.0000e+00
     46.000     9.2328    30.7363    9.55640  101.26478    23.7461 1.5503e+00     46.397     0.9723 0.0000e+00
     45.000     9.2324    30.7356    9.55400  101.24264    23.7454 1.5505e+00     45.500     1.0022 0.0000e+00
     44.000     9.2333    30.7354    9.55281  101.23209    23.7452 1.5502e+00     44.343     0.9922 0.0000e+00
     43.000     9.2335    30.7354    9.55361  101.24113    23.7451 1.5503e+00     43.371     0.9733 0.0000e+00
     42.000     9.2338    30.7342    9.55255  101.23021    23.7441 1.5502e+00     42.539     0.9973 0.0000e+00
     41.000     9.2339    30.7335    9.55019  101.20758    23.7435 1.5500e+00     41.229     1.0106 0.0000e+00
     40.000     9.2341    30.7335    9.55461  101.25435    23.7435 1.5500e+00     40.429     0.9693 0.0000e+00
     39.000     9.2370    30.7329    9.55747  101.28512    23.7430 1.5497e+00     39.344     0.9431 0.0000e+00
     38.000     9.2396    30.7273    9.55696  101.27965    23.7382 1.5498e+00     38.351     0.9506 0.0000e+00
     37.000     9.2406    30.7244    9.55813  101.29189    23.7356 1.5496e+00     37.414     0.9323 0.0000e+00
     36.000     9.2413    30.7235    9.55489  101.25774    23.7347 1.5495e+00     36.320     0.9988 0.0000e+00
     35.000     9.2415    30.7228    9.54810  101.18629    23.7340 1.5495e+00     35.220     0.8944 0.0000e+00
     34.000     9.2436    30.7224    9.54622  101.16649    23.7337 1.5495e+00     34.398     0.9305 0.0000e+00
     33.000     9.2440    30.7171    9.55022  101.20896    23.7292 1.5495e+00     33.272     0.8863 0.0000e+00
     32.000     9.2444    30.7170    9.55054  101.21379    23.7291 1.5495e+00     32.167     0.9423 0.0000e+00
     31.000     9.2441    30.7166    9.54058  101.10962    23.7287 1.5494e+00     31.332     0.9193 0.0000e+00
     30.000     9.2463    30.7189    9.54100  101.12440    23.7305 1.5491e+00     29.834     0.8102 0.0000e+00
     29.000     9.2468    30.7128    9.54291  101.14840    23.7255 1.5494e+00     29.265     0.8765 0.0000e+00
     28.000     9.2481    30.7092    9.54263  101.15148    23.7226 1.5494e+00     28.225     0.8418 0.0000e+00
     27.000     9.2486    30.7044    9.54818  101.21627    23.7187 1.5493e+00     27.294     0.8201 0.0000e+00
     26.000     9.2489    30.7028    9.55389  101.29072    23.7173 1.5494e+00     26.222     0.8456 0.0000e+00
     25.000     9.2494    30.7018    9.54621  101.21685    23.7165 1.5495e+00     25.309     0.8731 0.0000e+00
     24.000     9.2510    30.7002    9.54582  101.22212    23.7151 1.5492e+00     24.142     0.8561 0.0000e+00
     23.000     9.2531    30.6984    9.54803  101.24807    23.7135 1.5494e+00     23.241     0.8028 0.0000e+00
     22.000     9.2606    30.6914    9.54777  101.24666    23.7075 1.5495e+00     22.221     0.8003 0.0000e+00
     21.000     9.2651    30.6824    9.54709  101.24239    23.6996 1.5496e+00     21.264     0.7882 0.0000e+00
     20.000     9.2702    30.6749    9.54561  101.23461    23.6929 1.5501e+00     20.192     0.8190 0.0000e+00
     19.000     9.2772    30.6674    9.53970  101.17815    23.6864 1.5500e+00     19.197     0.8175 0.0000e+00
     18.000     9.2846    30.6577    9.53755  101.20040    23.6778 1.5511e+00     18.252     0.7921 0.0000e+00
     17.000     9.2931    30.6459    9.53612  101.23445    23.6671 1.5519e+00     17.040     0.8494 0.0000e+00
     16.000     9.2954    30.6370    9.53566  101.25436    23.6592 1.5532e+00     16.156     0.7567 0.0000e+00
     15.000     9.2966    30.6329    9.52981  101.20913    23.6555 1.5554e+00     15.162     0.7602 0.0000e+00
     14.000     9.2986    30.6310    9.51918  101.11646    23.6538 1.5578e+00     13.836     0.7616 0.0000e+00
     13.000     9.3021    30.6303    9.51289  101.06413    23.6531 1.5619e+00     13.271     0.7440 0.0000e+00
     12.000     9.3071    30.6249    9.50856  101.04522    23.6481 1.5679e+00     11.946     0.7153 0.0000e+00
     11.000 -9.990e-29 -9.990e-29 -9.990e-29 -9.990e-29 -9.990e-29 -9.990e-29 -9.990e-29 -9.990e-29 -9.990e-29
     10.000     9.3496    30.6039    9.49440  100.93639    23.6294 1.5862e+00     10.281     0.7084 0.0000e+00
      9.000     9.3800    30.5572    9.48328  100.85684    23.5871 1.6047e+00      9.039     0.6773 0.0000e+00
      8.000     9.3920    30.5373    9.39117   99.86261    23.5687 1.6300e+00      8.172     0.7191 0.0000e+00
      7.000     9.4003    30.5195   10.52698   98.84973    23.5522 1.6672e+00      7.162     0.7104 0.0000e+00
      6.000     9.4113    30.5106 -9.990e-29 -9.990e-29    23.5438 1.7202e+00      6.119     0.7343 0.0000e+00
      5.000     9.4250    30.4975 -9.990e-29 -9.990e-29    23.5320 1.8090e+00      5.187     0.7265 0.0000e+00
      4.000     9.4416    30.4794 -9.990e-29 -9.990e-29    23.5155 1.9206e+00      4.266     0.7200 0.0000e+00
      3.000     9.4542    30.4652 -9.990e-29 -9.990e-29    23.5026 2.0845e+00      3.470     0.7267 0.0000e+00
      2.000     9.4813    30.4391 -9.990e-29 -9.990e-29    23.4795 2.4219e+00      2.580     0.7025 0.0000e+00
      1.000     9.4996    30.4062 -9.990e-29 -9.990e-29    23.4502 4.1964e+00      1.946     0.7062 0.0000e+00
