* Sea-Bird SBE19plus Data File:
* FileName = C:\data\otf\2007\ctd-07031.hex
* Software Version 1.55
* Temperature SN =  5061
* Conductivity SN =  5061
* System UpLoad Time = Aug 15 2007 16:01:50
* ds
* SeacatPlus V 1.6a  SERIAL NO. 5061    15 Aug 2007  15:31:53
* vbatt = 10.9, vlith =  8.7, ioper =  61.6 ma, ipump =  57.5 ma, 
* iext01 =  95.2 ma
* iext23 =  58.1 ma
* 
* status = not logging
* number of scans to average = 1
* samples = 153039, free = 288466, casts = 154
* mode = profile, minimum cond freq = 3000, pump delay = 60 sec
* autorun = no, ignore magnetic switch = no
* battery type = alkaline, battery cutoff =  7.3 volts
* pressure sensor = strain gauge, range = 870.0
* SBE 38 = no, Gas Tension Device = no
* Ext Volt 0 = yes, Ext Volt 1 = yes, Ext Volt 2 = yes, Ext Volt 3 = yes
* echo commands = yes
* output format = raw HEX
* S>
* 
* SeacatPlus V 1.6a  SERIAL NO. 5061    15 Aug 2007  15:32:18
* temperature:  05-oct-06
*     TA0 = 1.254184e-03
*     TA1 = 2.596730e-04
*     TA2 = 5.165612e-07
*     TA3 = 1.318931e-07
*     TOFFSET = 0.000000e+00
* conductivity:  05-oct-06
*     G = -9.978144e-01
*     H = 1.555200e-01
*     I = -4.839108e-04
*     J = 6.121100e-05
*     CF0 = 2.539936e+03
*     CPCOR = -9.570000e-08
*     CTCOR = 3.250000e-06
*     CSLOPE = 1.000000e+00
* pressure S/N = 2362539, range = 870 psia:  24-aug-06
*     PA0 = 2.171091e-01
*     PA1 = 2.647085e-03
*     PA2 = 1.419397e-11
*     PTCA0 = 5.242437e+05
*     PTCA1 = 7.545345e+00
*     PTCA2 = -1.835354e-01
*     PTCB0 = 2.537125e+01
*     PTCB1 = -1.750000e-03
*     PTCB2 = 0.000000e+00
*     PTEMPA0 = -5.753989e+01
*     PTEMPA1 = 5.235813e+01
*     PTEMPA2 = -4.015521e-02
*     POFFSET = 0.000000e+00
* volt 0: offset = -4.682842e-02, slope = 1.249147e+00
* volt 1: offset = -4.695158e-02, slope = 1.248145e+00
* volt 2: offset = -4.685263e-02, slope = 1.248783e+00
* volt 3: offset = -4.690316e-02, slope = 1.249508e+00
*     EXTFREQSF = 1.000002e+00
* dh
* cast  31 07 Jul 2007 12:10:35 samples 34081 to 34403, avg = 4, stop = mag switch
* S> 
# nquan = 10
# nvalues = 154                         
# units = specified
# name 0 = depSM: Depth [salt water, m]
# name 1 = tv290C: Temperature [ITS-90, deg C]
# name 2 = sal00: Salinity [PSU]
# name 3 = sbeox0Mg/L: Oxygen, SBE 43 [mg/l]
# name 4 = sbeox0PS: Oxygen, SBE 43 [% saturation]
# name 5 = sigma-t00: Density [sigma-t, Kg/m^3 ]
# name 6 = par: PAR/Irradiance, Biospherical/Licor
# name 7 = prdM: Pressure, Strain Gauge [db]
# name 8 = flECO-AFL: Fluorescence, Wetlab ECO-AFL/FL [mg/m^3]
# name 9 = flag: flag
# span 0 =      1.000,     79.000       
# span 1 =     7.8934,     9.1105       
# span 2 =    30.6869,    31.5077       
# span 3 =    9.04664,   10.14541       
# span 4 =   94.81328,  107.15678       
# span 5 =    23.7386,    24.5473       
# span 6 = 1.5455e+00, 2.0968e+03       
# span 7 =      1.969,     78.708       
# span 8 =     0.2478,     0.9856       
# span 9 = 0.0000e+00, 0.0000e+00       
# interval = meters: 1                  
# start_time = Jul 07 2007 12:10:35
# bad_flag = -9.990e-29
# sensor 0 = Frequency 0  temperature, 5061, 05-Oct-06
# sensor 1 = Frequency 1  conductivity, 5061, 05-Oct-06, cpcor = -9.5700e-08
# sensor 2 = Pressure Number
# sensor 3 = Extrnl Volt  0  irradiance (PAR), primary, 4751, 08/10/06
# sensor 4 = Extrnl Volt  1  Oxygen, SBE, primary, 1081, 10/24/06
# sensor 5 = Extrnl Volt  2  WET Labs, ECO_AFL
# sensor 6 = Extrnl Volt  3  userpoly 0, 0627, 10/11/06
# datcnv_date = Oct 15 2007 14:49:44, 5.37e
# datcnv_in = I:\bob d\OTF_GEM\2007\ctd-07031.hex I:\Willette\OTF\CTD\5061.con
# datcnv_skipover = 0
# filter_date = Oct 15 2007 15:02:22, 5.37e
# filter_in = I:\Willette\OTF\CTD\2007\CTD Data\ctd-07031.cnv
# filter_low_pass_tc_A = 1.000
# filter_low_pass_tc_B = 0.150
# filter_low_pass_A_vars = prdM
# filter_low_pass_B_vars =
# loopedit_date = Oct 15 2007 15:06:45, 5.37e
# loopedit_in = I:\Willette\OTF\CTD\2007\CTD Data\ctd-07031.cnv
# loopedit_minVelocity = 0.250                                                                                            
# loopedit_surfaceSoak: minDepth = 5.0, maxDepth = 20, useDeckPress = 1                                                   
# loopedit_excl_bad_scans = yes
# alignctd_date = Oct 15 2007 15:14:14, 5.37e
# alignctd_in = I:\Willette\OTF\CTD\2007\CTD Data\ctd-07031.cnv
# alignctd_adv = tv290C 0.500, sbeox0Mg/L 4.000, sbeox0PS 4.000                                                                                                                                                                      
# binavg_date = Oct 15 2007 15:18:42, 5.37e
# binavg_in = I:\Willette\OTF\CTD\2007\CTD Data\ctd-07031.cnv
# binavg_bintype = meters
# binavg_binsize = 1
# binavg_excl_bad_scans = yes
# binavg_skipover = 0
# binavg_surface_bin = no, min = 0.000, max = 0.000, value = 0.000
# file_type = ascii
*END*
      4.000     9.0036    30.7250    9.04664   94.81328    23.7457 5.9328e+02      4.827     0.2478 0.0000e+00
      5.000     8.9101    30.7406    9.09418   95.30043    23.7749 4.3653e+02      5.668     0.2964 0.0000e+00
      6.000     8.8420    30.7736    9.19316   96.33887    23.8187 3.3105e+02      6.636     0.3559 0.0000e+00
      7.000     8.8201    30.7723    9.22771   96.68598    23.8268 2.4965e+02      7.397     0.4247 0.0000e+00
      8.000     8.8003    30.8130    9.24505   96.84195    23.8659 1.8515e+02      8.205     0.5006 0.0000e+00
      9.000     8.7641    30.8187    9.27982   97.15060    23.8738 1.3829e+02      9.117     0.6006 0.0000e+00
     10.000     8.7527    30.8301    9.41233   98.51760    23.8853 1.0652e+02      9.885     0.6444 0.0000e+00
     11.000     8.7529    30.8931    9.52536   99.68527    23.9397 8.1842e+01     10.865     0.6890 0.0000e+00
     12.000     8.7300    30.8958    9.61308  100.58300    23.9431 6.3643e+01     12.166     0.6826 0.0000e+00
     13.000     8.7059    30.9078    9.65389  100.99156    23.9557 4.9277e+01     13.386     0.6538 0.0000e+00
     14.000     8.6878    30.8899    9.68744  101.32449    23.9436 3.8886e+01     14.596     0.6248 0.0000e+00
     15.000     8.6973    30.9079    9.68933  101.31401    23.9607 3.1330e+01     15.360     0.6120 0.0000e+00
     16.000     8.6921    30.9163    9.70205  101.39437    23.9675 2.4772e+01     16.451     0.5844 0.0000e+00
     17.000     8.6925    30.9035    9.72992  101.64130    23.9576 2.0093e+01     17.336     0.6299 0.0000e+00
     18.000     8.6880    30.9096    9.73510  101.66457    23.9631 1.6216e+01     18.144     0.5953 0.0000e+00
     19.000     8.6734    30.9144    9.75534  101.84643    23.9667 1.2985e+01     19.186     0.6113 0.0000e+00
     20.000     8.6559    30.9069    9.76403  101.88121    23.9618 1.0700e+01     20.090     0.6228 0.0000e+00
     21.000     8.6430    30.9143    9.76971  101.88572    23.9696 8.7946e+00     20.876     0.6555 0.0000e+00
     22.000     8.6341    30.9000    9.78225  101.92558    23.9616 7.2396e+00     21.992     0.6315 0.0000e+00
     23.000     8.6249    30.9063    9.78992  101.95167    23.9683 6.0946e+00     23.001     0.6344 0.0000e+00
     24.000     8.6179    30.9153    9.80672  102.04190    23.9770 5.1389e+00     24.077     0.6776 0.0000e+00
     25.000     8.6076    30.9217    9.81490  102.07277    23.9833 4.4477e+00     25.192     0.6019 0.0000e+00
     26.000     8.5929    30.9295    9.80895  101.96115    23.9908 3.8585e+00     26.301     0.5969 0.0000e+00
     27.000     8.5672    30.9359    9.81859  102.01065    23.9973 3.4067e+00     27.354     0.6393 0.0000e+00
     28.000     8.5381    30.9478    9.82792  102.06019    24.0093 3.0315e+00     28.361     0.6057 0.0000e+00
     29.000     8.5141    30.9666    9.83105  102.04726    24.0284 2.7243e+00     29.396     0.5858 0.0000e+00
     30.000     8.4915    30.9823    9.83214  102.00194    24.0442 2.5093e+00     30.354     0.6096 0.0000e+00
     31.000     8.4580    30.9993    9.84429  102.07271    24.0602 2.3301e+00     31.294     0.5936 0.0000e+00
     32.000     8.4133    31.0225    9.85095  102.09456    24.0825 2.1747e+00     32.244     0.5901 0.0000e+00
     33.000     8.3799    31.0512    9.84260  101.98306    24.1104 2.0485e+00     33.252     0.5911 0.0000e+00
     34.000     8.3486    31.0920    9.85527  102.10550    24.1505 1.9494e+00     34.273     0.5673 0.0000e+00
     35.000     8.3091    31.1093    9.84819  102.01796    24.1672 1.8795e+00     35.238     0.5829 0.0000e+00
     36.000     8.2844    31.1364    9.86007  102.13189    24.1941 1.8200e+00     36.200     0.5470 0.0000e+00
     37.000     8.2605    31.1573    9.86911  102.20291    24.2148 1.7711e+00     37.159     0.5235 0.0000e+00
     38.000     8.2335    31.1754    9.85785  102.06414    24.2328 1.7320e+00     38.179     0.5566 0.0000e+00
     39.000     8.2056    31.1963    9.86999  102.15584    24.2531 1.7002e+00     39.220     0.5438 0.0000e+00
     40.000     8.1755    31.2163    9.85984  102.01944    24.2729 1.6739e+00     40.256     0.5629 0.0000e+00
     41.000     8.1422    31.2382    9.86822  102.08172    24.2939 1.6526e+00     41.246     0.5423 0.0000e+00
     42.000     8.1051    31.2654    9.87170  102.06959    24.3206 1.6341e+00     42.341     0.5447 0.0000e+00
     43.000     8.0849    31.2910    9.87392  102.06985    24.3460 1.6197e+00     43.362     0.5536 0.0000e+00
     44.000     8.0765    31.3108    9.87939  102.11563    24.3649 1.6079e+00     44.371     0.5477 0.0000e+00
     45.000     8.0694    31.3188    9.88991  102.20327    24.3728 1.5980e+00     45.389     0.4946 0.0000e+00
     46.000     8.0602    31.3268    9.88743  102.15848    24.3803 1.5896e+00     46.442     0.5341 0.0000e+00
     47.000     8.0464    31.3310    9.88971  102.17678    24.3845 1.5832e+00     47.600     0.5613 0.0000e+00
     48.000     8.0310    31.3385    9.89643  102.24992    24.3923 1.5770e+00     48.518     0.5390 0.0000e+00
     49.000     8.0107    31.3440    9.89939  102.28338    24.3987 1.5726e+00     49.621     0.5385 0.0000e+00
     50.000     7.9992    31.3563    9.89743  102.26474    24.4105 1.5684e+00     50.428     0.5356 0.0000e+00
     51.000     7.9789    31.3687    9.89690  102.25647    24.4227 1.5644e+00     51.472     0.5161 0.0000e+00
     52.000     7.9580    31.3785    9.89464  102.23144    24.4319 1.5619e+00     52.301     0.5202 0.0000e+00
     53.000     7.9527    31.3990    9.89921  102.27750    24.4513 1.5592e+00     53.056     0.4943 0.0000e+00
     54.000     7.9457    31.4163    9.91113  102.39987    24.4675 1.5572e+00     54.185     0.5861 0.0000e+00
     55.000     7.9253    31.4228    9.91564  102.44328    24.4734 1.5555e+00     55.398     0.5604 0.0000e+00
     56.000     7.9168    31.4437    9.92378  102.52038    24.4924 1.5540e+00     56.469     0.5489 0.0000e+00
     57.000     7.9161    31.4615    9.91961  102.47462    24.5077 1.5529e+00     57.538     0.5703 0.0000e+00
     58.000     7.9157    31.4689    9.92476  102.52510    24.5137 1.5517e+00     58.587     0.5547 0.0000e+00
     59.000     7.9138    31.4739    9.92093  102.48000    24.5177 1.5504e+00     59.558     0.5657 0.0000e+00
     60.000     7.9126    31.4807    9.91504  102.41799    24.5233 1.5500e+00     60.562     0.5586 0.0000e+00
     61.000     7.9112    31.4833    9.91598  102.42854    24.5255 1.5493e+00     61.620     0.5905 0.0000e+00
     62.000     7.9102    31.4851    9.91513  102.42028    24.5271 1.5489e+00     62.643     0.5875 0.0000e+00
     63.000     7.9086    31.4859    9.91768  102.44687    24.5278 1.5480e+00     63.612     0.5859 0.0000e+00
     64.000     7.9044    31.4884    9.91843  102.45463    24.5301 1.5481e+00     64.615     0.5809 0.0000e+00
     65.000     7.9029    31.4936    9.91673  102.43627    24.5347 1.5473e+00     65.596     0.5730 0.0000e+00
     66.000     7.9010    31.4960    9.92707  102.54420    24.5368 1.5477e+00     66.637     0.5750 0.0000e+00
     67.000     7.8976    31.4977    9.93251  102.60085    24.5384 1.5472e+00     67.641     0.5798 0.0000e+00
     68.000     7.8958    31.5027    9.92911  102.56588    24.5428 1.5469e+00     68.689     0.6176 0.0000e+00
     69.000     7.8962    31.5063    9.92223  102.49547    24.5460 1.5469e+00     69.662     0.6076 0.0000e+00
     70.000     7.8962    31.5058    9.93001  102.57574    24.5454 1.5467e+00     70.785     0.6558 0.0000e+00
     71.000     7.8965    31.5058    9.92981  102.57625    24.5455 1.5461e+00     71.668     0.6645 0.0000e+00
     72.000     7.8967    31.5053    9.92999  102.57834    24.5450 1.5459e+00     72.627     0.7818 0.0000e+00
     73.000     7.8963    31.5055    9.92954  102.57494    24.5452 1.5459e+00     73.601     0.7271 0.0000e+00
     74.000     7.8964    31.5055    9.93103  102.59280    24.5452 1.5459e+00     74.556     0.7253 0.0000e+00
     75.000     7.8968    31.5058    9.93001  102.58145    24.5455 1.5459e+00     75.463     0.6769 0.0000e+00
     76.000     7.8971    31.5053    9.94165  102.69866    24.5450 1.5457e+00     76.297     0.6819 0.0000e+00
     77.000     7.8972    31.5052    9.93695  102.65111    24.5449 1.5458e+00     77.136     0.7690 0.0000e+00
     78.000     7.8975    31.5047    9.93173  102.59619    24.5445 1.5456e+00     77.891     0.7592 0.0000e+00
     79.000     7.8988    31.5047    9.92246  102.49676    24.5443 1.5455e+00     78.708     0.9499 0.0000e+00
     78.000     7.8986    31.5039    9.92699  102.53866    24.5435 1.5457e+00     78.046     0.9856 0.0000e+00
     77.000     7.8983    31.5056    9.92012  102.47011    24.5450 1.5460e+00     77.272     0.8261 0.0000e+00
     76.000     7.8973    31.5056    9.91579  102.42311    24.5450 1.5458e+00     76.465     0.8339 0.0000e+00
     75.000     7.8972    31.5060    9.91357  102.39854    24.5455 1.5460e+00     75.516     0.7795 0.0000e+00
     74.000     7.8963    31.5073    9.92218  102.48925    24.5466 1.5459e+00     74.560     0.7202 0.0000e+00
     73.000     7.8950    31.5064    9.92537  102.52651    24.5458 1.5459e+00     73.663     0.7663 0.0000e+00
     72.000     7.8947    31.5077    9.92869  102.56463    24.5471 1.5464e+00     72.677     0.6685 0.0000e+00
     71.000     7.8942    31.5077    9.92732  102.55585    24.5472 1.5465e+00     71.626     0.6601 0.0000e+00
     70.000     7.8947    31.5077    9.92064  102.49006    24.5473 1.5467e+00     70.666     0.6887 0.0000e+00
     69.000     7.8951    31.5074    9.92398  102.52988    24.5470 1.5470e+00     69.647     0.6864 0.0000e+00
     68.000     7.8936    31.5067    9.92739  102.56769    24.5463 1.5470e+00     68.719     0.7482 0.0000e+00
     67.000     7.8934    31.5070    9.93206  102.61840    24.5467 1.5474e+00     67.646     0.7258 0.0000e+00
     66.000     7.8954    31.5074    9.91851  102.47801    24.5471 1.5476e+00     66.710     0.7195 0.0000e+00
     65.000     7.8987    31.5044    9.91279  102.41662    24.5446 1.5476e+00     65.730     0.6475 0.0000e+00
     64.000     7.9022    31.4999    9.91126  102.39615    24.5405 1.5481e+00     64.707     0.6232 0.0000e+00
     63.000     7.9048    31.4951    9.90130  102.29598    24.5362 1.5486e+00     63.655     0.6201 0.0000e+00
     62.000     7.9084    31.4921    9.90474  102.33866    24.5336 1.5490e+00     62.651     0.6568 0.0000e+00
     61.000     7.9117    31.4864    9.89779  102.31126    24.5285 1.5498e+00     61.599     0.6650 0.0000e+00
     60.000     7.9132    31.4822    9.90505  102.44031    24.5247 1.5504e+00     60.590     0.6446 0.0000e+00
     59.000     7.9148    31.4801    9.89882  102.37892    24.5230 1.5514e+00     59.616     0.6297 0.0000e+00
     58.000     7.9163    31.4737    9.90232  102.41687    24.5177 1.5522e+00     58.554     0.5923 0.0000e+00
     57.000     7.9171    31.4646    9.90093  102.40722    24.5103 1.5532e+00     57.572     0.6210 0.0000e+00
     56.000     7.9218    31.4540    9.90314  102.47185    24.5019 1.5550e+00     56.562     0.6160 0.0000e+00
     55.000     7.9293    31.4438    9.89915  102.45110    24.4932 1.5561e+00     55.535     0.5727 0.0000e+00
     54.000     7.9664    31.4348    9.90404  102.53152    24.4850 1.5581e+00     54.555     0.5697 0.0000e+00
     53.000     7.9827    31.3958    9.90564  102.57736    24.4489 1.5607e+00     53.507     0.5703 0.0000e+00
     52.000     7.9852    31.3843    9.89623  102.50142    24.4379 1.5634e+00     52.537     0.5684 0.0000e+00
     51.000     7.9859    31.3822    9.89574  102.51002    24.4359 1.5667e+00     51.512     0.5477 0.0000e+00
     50.000     7.9990    31.3818    9.88164  102.37331    24.4356 1.5706e+00     50.480     0.6085 0.0000e+00
     49.000     8.0166    31.3681    9.89862  102.56326    24.4225 1.5751e+00     49.474     0.5669 0.0000e+00
     48.000     8.0298    31.3560    9.89013  102.50627    24.4108 1.5808e+00     48.440     0.5885 0.0000e+00
     47.000     8.0458    31.3487    9.88596  102.51321    24.4031 1.5872e+00     47.424     0.6087 0.0000e+00
     46.000     8.0592    31.3400    9.88801  102.59077    24.3941 1.5951e+00     46.452     0.5295 0.0000e+00
     45.000     8.0686    31.3308    9.88956  102.66950    24.3848 1.6043e+00     45.374     0.5486 0.0000e+00
     44.000     8.0737    31.3250    9.89248  102.74343    24.3793 1.6149e+00     44.506     0.5481 0.0000e+00
     43.000     8.0808    31.3188    9.89608  102.84077    24.3734 1.6273e+00     43.386     0.5275 0.0000e+00
     42.000     8.0903    31.3131    9.90052  102.93353    24.3681 1.6431e+00     42.411     0.5575 0.0000e+00
     41.000     8.1122    31.3057    9.90012  102.99187    24.3609 1.6626e+00     41.436     0.5548 0.0000e+00
     40.000     8.1433    31.2895    9.91075  103.16616    24.3448 1.6848e+00     40.418     0.5681 0.0000e+00
     39.000     8.1754    31.2677    9.91310  103.23842    24.3232 1.7124e+00     39.416     0.5522 0.0000e+00
     38.000     8.2079    31.2397    9.90706  103.20960    24.2964 1.7461e+00     38.403     0.5523 0.0000e+00
     37.000     8.2373    31.2172    9.89179  103.08341    24.2744 1.7861e+00     37.410     0.5789 0.0000e+00
     36.000     8.2664    31.1938    9.88699  103.09402    24.2515 1.8358e+00     36.382     0.5969 0.0000e+00
     35.000     8.3011    31.1713    9.90415  103.36098    24.2296 1.8973e+00     35.347     0.5856 0.0000e+00
     34.000     8.3384    31.1473    9.90149  103.38294    24.2055 1.9718e+00     34.316     0.5511 0.0000e+00
     33.000     8.3650    31.1231    9.89707  103.38162    24.1814 2.0702e+00     33.288     0.5900 0.0000e+00
     32.000     8.3854    31.1043    9.88938  103.34974    24.1633 2.1860e+00     32.292     0.6381 0.0000e+00
     31.000     8.4041    31.0874    9.89376  103.45614    24.1467 2.3231e+00     31.213     0.5720 0.0000e+00
     30.000     8.4454    31.0746    9.89220  103.47502    24.1341 2.5042e+00     30.245     0.5677 0.0000e+00
     29.000     8.4840    31.0315    9.89359  103.51169    24.0935 2.7349e+00     29.219     0.6144 0.0000e+00
     28.000     8.5092    31.0049    9.90116  103.60676    24.0679 3.0028e+00     28.243     0.5742 0.0000e+00
     27.000     8.5304    30.9886    9.90049  103.61345    24.0514 3.3375e+00     27.167     0.5877 0.0000e+00
     26.000     8.5545    30.9766    9.90678  103.70020    24.0391 3.7801e+00     26.177     0.6058 0.0000e+00
     25.000     8.5810    30.9613    9.90744  103.72384    24.0237 4.2936e+00     25.188     0.5927 0.0000e+00
     24.000     8.6025    30.9453    9.91029  103.76814    24.0075 4.9428e+00     24.193     0.6331 0.0000e+00
     23.000     8.6150    30.9287    9.91231  103.79563    23.9912 5.7741e+00     23.167     0.6204 0.0000e+00
     22.000     8.6254    30.9189    9.93333  104.01842    23.9816 6.8696e+00     22.121     0.6124 0.0000e+00
     21.000     8.6315    30.9122    9.92613  103.94308    23.9751 8.2925e+00     21.159     0.6391 0.0000e+00
     20.000     8.6385    30.9083    9.92124  103.89985    23.9710 1.0091e+01     20.097     0.6114 0.0000e+00
     19.000     8.6479    30.9056    9.92258  103.92318    23.9681 1.2314e+01     19.163     0.6207 0.0000e+00
     18.000     8.6574    30.8984    9.92610  103.96732    23.9608 1.5134e+01     18.030     0.6227 0.0000e+00
     17.000     8.6641    30.8921    9.91106  103.82178    23.9547 1.8716e+01     17.122     0.7597 0.0000e+00
     16.000     8.6685    30.8856    9.92477  103.99666    23.9486 2.3420e+01     16.086     0.6263 0.0000e+00
     15.000     8.6699    30.8808    9.92502  104.06567    23.9442 2.9689e+01     15.156     0.6231 0.0000e+00
     14.000     8.6716    30.8780    9.94312  104.31897    23.9416 3.7341e+01     14.155     0.5959 0.0000e+00
     13.000     8.6733    30.8744    9.94559  104.42967    23.9387 4.7784e+01     13.221     0.6252 0.0000e+00
     12.000     8.6807    30.8662    9.98740  104.98244    23.9319 6.0897e+01     12.118     0.6096 0.0000e+00
     11.000     8.6876    30.8593   10.00578  105.28243    23.9255 7.7822e+01     11.164     0.6985 0.0000e+00
     10.000     8.6919    30.8474   10.09905  106.42049    23.9151 1.0013e+02     10.098     0.6490 0.0000e+00
      9.000     8.7070    30.8387   10.14541  107.15678    23.9076 1.3070e+02      9.060     0.7000 0.0000e+00
      8.000     8.7319    30.8280    9.98138  105.32186    23.8973 1.7239e+02      8.138     0.6781 0.0000e+00
      7.000     8.7779    30.7988    9.84539  103.78814    23.8704 2.3284e+02      7.059     0.6303 0.0000e+00
      6.000     8.8181    30.7635 -9.990e-29 -9.990e-29    23.8367 3.1263e+02      6.118     0.5831 0.0000e+00
      5.000     8.8649    30.7366 -9.990e-29 -9.990e-29    23.8093 4.2508e+02      5.142     0.5392 0.0000e+00
      4.000     8.9036    30.7218 -9.990e-29 -9.990e-29    23.7913 5.7044e+02      4.239     0.4224 0.0000e+00
      3.000     8.9733    30.7081 -9.990e-29 -9.990e-29    23.7745 7.8581e+02      3.420     0.3636 0.0000e+00
      2.000     9.0326    30.6924 -9.990e-29 -9.990e-29    23.7524 1.1104e+03      2.640     0.3165 0.0000e+00
      1.000     9.1105    30.6869 -9.990e-29 -9.990e-29    23.7386 2.0968e+03      1.969     0.2658 0.0000e+00
