* Sea-Bird SBE19plus Data File:
* FileName = C:\data\otf\2007\ctd-07085.hex
* Software Version 1.55
* Temperature SN =  5061
* Conductivity SN =  5061
* System UpLoad Time = Aug 15 2007 16:23:06
* ds
* SeacatPlus V 1.6a  SERIAL NO. 5061    15 Aug 2007  15:31:53
* vbatt = 10.9, vlith =  8.7, ioper =  61.6 ma, ipump =  57.5 ma, 
* iext01 =  95.2 ma
* iext23 =  58.1 ma
* 
* status = not logging
* number of scans to average = 1
* samples = 153039, free = 288466, casts = 154
* mode = profile, minimum cond freq = 3000, pump delay = 60 sec
* autorun = no, ignore magnetic switch = no
* battery type = alkaline, battery cutoff =  7.3 volts
* pressure sensor = strain gauge, range = 870.0
* SBE 38 = no, Gas Tension Device = no
* Ext Volt 0 = yes, Ext Volt 1 = yes, Ext Volt 2 = yes, Ext Volt 3 = yes
* echo commands = yes
* output format = raw HEX
* S>
* 
* SeacatPlus V 1.6a  SERIAL NO. 5061    15 Aug 2007  15:32:18
* temperature:  05-oct-06
*     TA0 = 1.254184e-03
*     TA1 = 2.596730e-04
*     TA2 = 5.165612e-07
*     TA3 = 1.318931e-07
*     TOFFSET = 0.000000e+00
* conductivity:  05-oct-06
*     G = -9.978144e-01
*     H = 1.555200e-01
*     I = -4.839108e-04
*     J = 6.121100e-05
*     CF0 = 2.539936e+03
*     CPCOR = -9.570000e-08
*     CTCOR = 3.250000e-06
*     CSLOPE = 1.000000e+00
* pressure S/N = 2362539, range = 870 psia:  24-aug-06
*     PA0 = 2.171091e-01
*     PA1 = 2.647085e-03
*     PA2 = 1.419397e-11
*     PTCA0 = 5.242437e+05
*     PTCA1 = 7.545345e+00
*     PTCA2 = -1.835354e-01
*     PTCB0 = 2.537125e+01
*     PTCB1 = -1.750000e-03
*     PTCB2 = 0.000000e+00
*     PTEMPA0 = -5.753989e+01
*     PTEMPA1 = 5.235813e+01
*     PTEMPA2 = -4.015521e-02
*     POFFSET = 0.000000e+00
* volt 0: offset = -4.682842e-02, slope = 1.249147e+00
* volt 1: offset = -4.695158e-02, slope = 1.248145e+00
* volt 2: offset = -4.685263e-02, slope = 1.248783e+00
* volt 3: offset = -4.690316e-02, slope = 1.249508e+00
*     EXTFREQSF = 1.000002e+00
* dh
* cast  85 16 Jul 2007 06:35:58 samples 54662 to 54967, avg = 4, stop = mag switch
* S> 
# nquan = 10
# nvalues = 152                         
# units = specified
# name 0 = depSM: Depth [salt water, m]
# name 1 = tv290C: Temperature [ITS-90, deg C]
# name 2 = sal00: Salinity [PSU]
# name 3 = sbeox0Mg/L: Oxygen, SBE 43 [mg/l]
# name 4 = sbeox0PS: Oxygen, SBE 43 [% saturation]
# name 5 = sigma-t00: Density [sigma-t, Kg/m^3 ]
# name 6 = par: PAR/Irradiance, Biospherical/Licor
# name 7 = prdM: Pressure, Strain Gauge [db]
# name 8 = flECO-AFL: Fluorescence, Wetlab ECO-AFL/FL [mg/m^3]
# name 9 = flag: flag
# span 0 =      1.000,     78.000       
# span 1 =     8.1183,     9.0845       
# span 2 =    30.8732,    31.6570       
# span 3 =    9.39512,   10.86072       
# span 4 =   93.60103,  102.33161       
# span 5 =    23.8774,    24.6325       
# span 6 = 1.5493e+00, 2.8106e+02       
# span 7 =      1.817,     77.923       
# span 8 =     0.6247,     0.9464       
# span 9 = 0.0000e+00, 0.0000e+00       
# interval = meters: 1                  
# start_time = Jul 16 2007 06:35:58
# bad_flag = -9.990e-29
# sensor 0 = Frequency 0  temperature, 5061, 05-Oct-06
# sensor 1 = Frequency 1  conductivity, 5061, 05-Oct-06, cpcor = -9.5700e-08
# sensor 2 = Pressure Number
# sensor 3 = Extrnl Volt  0  irradiance (PAR), primary, 4751, 08/10/06
# sensor 4 = Extrnl Volt  1  Oxygen, SBE, primary, 1081, 10/24/06
# sensor 5 = Extrnl Volt  2  WET Labs, ECO_AFL
# sensor 6 = Extrnl Volt  3  userpoly 0, 0627, 10/11/06
# datcnv_date = Oct 15 2007 14:49:46, 5.37e
# datcnv_in = I:\bob d\OTF_GEM\2007\ctd-07085.hex I:\Willette\OTF\CTD\5061.con
# datcnv_skipover = 0
# filter_date = Oct 15 2007 15:02:27, 5.37e
# filter_in = I:\Willette\OTF\CTD\2007\CTD Data\ctd-07085.cnv
# filter_low_pass_tc_A = 1.000
# filter_low_pass_tc_B = 0.150
# filter_low_pass_A_vars = prdM
# filter_low_pass_B_vars =
# loopedit_date = Oct 15 2007 15:06:48, 5.37e
# loopedit_in = I:\Willette\OTF\CTD\2007\CTD Data\ctd-07085.cnv
# loopedit_minVelocity = 0.250                                                                                            
# loopedit_surfaceSoak: minDepth = 5.0, maxDepth = 20, useDeckPress = 1                                                   
# loopedit_excl_bad_scans = yes
# alignctd_date = Oct 15 2007 15:14:16, 5.37e
# alignctd_in = I:\Willette\OTF\CTD\2007\CTD Data\ctd-07085.cnv
# alignctd_adv = tv290C 0.500, sbeox0Mg/L 4.000, sbeox0PS 4.000                                                                                                                                                                      
# binavg_date = Oct 15 2007 15:18:45, 5.37e
# binavg_in = I:\Willette\OTF\CTD\2007\CTD Data\ctd-07085.cnv
# binavg_bintype = meters
# binavg_binsize = 1
# binavg_excl_bad_scans = yes
# binavg_skipover = 0
# binavg_surface_bin = no, min = 0.000, max = 0.000, value = 0.000
# file_type = ascii
*END*
      4.000     9.0296    30.8926    9.39512   98.32149    23.8925 3.3170e+01      5.001     0.6817 0.0000e+00
      5.000     8.9838    30.9101    9.44943   98.87167    23.9095 2.9137e+01      5.853     0.6487 0.0000e+00
      6.000     8.9380    30.9315    9.48230   99.20922    23.9313 2.3410e+01      6.678     0.6295 0.0000e+00
      7.000 -9.990e-29 -9.990e-29 -9.990e-29 -9.990e-29 -9.990e-29 -9.990e-29 -9.990e-29 -9.990e-29 -9.990e-29
      8.000     8.8829    30.9812    9.51631   99.55253    23.9784 1.6996e+01      7.886     0.6247 0.0000e+00
      9.000     8.8390    31.0481    9.54596   99.85304    24.0407 1.2291e+01      9.108     0.6649 0.0000e+00
     10.000     8.8324    31.0831    9.56069  100.00217    24.0728 1.0138e+01     10.055     0.7027 0.0000e+00
     11.000     8.7826    31.1098    9.58317  100.22048    24.0971 8.4591e+00     11.280     0.6719 0.0000e+00
     12.000     8.7065    31.1299    9.60687  100.44989    24.1166 7.1084e+00     12.379     0.6568 0.0000e+00
     13.000     8.6561    31.1778    9.61945  100.56269    24.1622 5.9226e+00     13.431     0.6799 0.0000e+00
     14.000     8.5650    31.2319    9.63215  100.66458    24.2160 5.1880e+00     14.609     0.7168 0.0000e+00
     15.000     8.5380    31.2733    9.63886  100.71098    24.2570 4.6208e+00     15.509     0.7006 0.0000e+00
     16.000     8.5132    31.3203    9.64837  100.78220    24.3026 4.0488e+00     16.461     0.6884 0.0000e+00
     17.000 -9.990e-29 -9.990e-29 -9.990e-29 -9.990e-29 -9.990e-29 -9.990e-29 -9.990e-29 -9.990e-29 -9.990e-29
     18.000     8.4948    31.3591    9.66413  100.90603    24.3399 3.3579e+00     17.900     0.6979 0.0000e+00
     19.000     8.4870    31.3774    9.67274  100.97823    24.3576 2.9291e+00     19.093     0.6809 0.0000e+00
     20.000     8.4847    31.3840    9.68514  101.07757    24.3640 2.6948e+00     20.157     0.6825 0.0000e+00
     21.000     8.4790    31.3886    9.68980  101.10717    24.3684 2.5052e+00     20.990     0.6836 0.0000e+00
     22.000     8.4755    31.3924    9.69463  101.13954    24.3717 2.3343e+00     21.922     0.7118 0.0000e+00
     23.000     8.4731    31.3981    9.70007  101.18232    24.3770 2.2023e+00     22.816     0.7117 0.0000e+00
     24.000     8.4699    31.4014    9.70519  101.22178    24.3802 2.0899e+00     23.742     0.7151 0.0000e+00
     25.000     8.4601    31.4052    9.71049  101.26048    24.3836 1.9922e+00     25.003     0.7289 0.0000e+00
     26.000     8.4498    31.4069    9.72121  101.36346    24.3856 1.9257e+00     26.133     0.7146 0.0000e+00
     27.000     8.4400    31.4132    9.71603  101.29769    24.3920 1.8618e+00     26.997     0.7064 0.0000e+00
     28.000     8.4177    31.4223    9.72556  101.37772    24.4011 1.8102e+00     28.335     0.6899 0.0000e+00
     29.000     8.4022    31.4324    9.73199  101.42397    24.4110 1.7682e+00     29.402     0.6689 0.0000e+00
     30.000     8.3798    31.4492    9.73426  101.43132    24.4271 1.7324e+00     30.550     0.6900 0.0000e+00
     31.000     8.3689    31.4612    9.73911  101.47142    24.4391 1.7041e+00     31.542     0.6834 0.0000e+00
     32.000     8.3532    31.4754    9.74143  101.48060    24.4529 1.6793e+00     32.635     0.6685 0.0000e+00
     33.000     8.3399    31.4813    9.74529  101.46775    24.4588 1.6599e+00     33.612     0.6780 0.0000e+00
     34.000     8.3301    31.4897    9.74352  101.41985    24.4672 1.6427e+00     34.492     0.6983 0.0000e+00
     35.000     8.3225    31.4974    9.74457  101.43397    24.4749 1.6281e+00     35.355     0.6944 0.0000e+00
     36.000     8.3155    31.5039    9.75045  101.49875    24.4816 1.6160e+00     36.224     0.6736 0.0000e+00
     37.000     8.3079    31.5104    9.75547  101.54868    24.4880 1.6052e+00     37.291     0.6613 0.0000e+00
     38.000     8.3028    31.5157    9.76072  101.59989    24.4934 1.5970e+00     38.303     0.6662 0.0000e+00
     39.000     8.2987    31.5200    9.76439  101.63226    24.4976 1.5902e+00     39.147     0.6789 0.0000e+00
     40.000     8.2922    31.5235    9.76959  101.66614    24.5011 1.5839e+00     40.096     0.6829 0.0000e+00
     41.000     8.2847    31.5266    9.76998  101.63992    24.5043 1.5778e+00     41.148     0.7020 0.0000e+00
     42.000     8.2740    31.5318    9.77174  101.65980    24.5096 1.5738e+00     42.238     0.6949 0.0000e+00
     43.000     8.2666    31.5364    9.77279  101.66888    24.5142 1.5705e+00     43.203     0.7073 0.0000e+00
     44.000     8.2587    31.5446    9.77567  101.69079    24.5222 1.5672e+00     44.328     0.7156 0.0000e+00
     45.000     8.2509    31.5511    9.77559  101.68047    24.5287 1.5647e+00     45.479     0.7129 0.0000e+00
     46.000     8.2176    31.5559    9.77647  101.67923    24.5332 1.5627e+00     46.589     0.7018 0.0000e+00
     47.000     8.2019    31.5583    9.78030  101.70969    24.5361 1.5607e+00     47.443     0.7082 0.0000e+00
     48.000     8.2101    31.5858    9.77812  101.64515    24.5635 1.5590e+00     48.557     0.6888 0.0000e+00
     49.000     8.2098    31.6038    9.77888  101.65681    24.5802 1.5576e+00     49.730     0.7522 0.0000e+00
     50.000     8.2065    31.5897    9.78420  101.71804    24.5667 1.5565e+00     50.507     0.7419 0.0000e+00
     51.000     8.2031    31.5900    9.78748  101.74221    24.5671 1.5560e+00     51.506     0.7358 0.0000e+00
     52.000     8.1924    31.5910    9.78725  101.73291    24.5680 1.5550e+00     52.489     0.7387 0.0000e+00
     53.000     8.1773    31.5929    9.78663  101.72503    24.5701 1.5545e+00     53.414     0.7492 0.0000e+00
     54.000     8.1754    31.6002    9.78817  101.73497    24.5774 1.5540e+00     54.288     0.7728 0.0000e+00
     55.000     8.1755    31.6156    9.78593  101.70392    24.5922 1.5535e+00     55.421     0.7788 0.0000e+00
     56.000     8.1714    31.6126    9.78926  101.73818    24.5892 1.5524e+00     56.554     0.7819 0.0000e+00
     57.000     8.1687    31.6132    9.79096  101.75663    24.5899 1.5527e+00     57.230     0.7760 0.0000e+00
     58.000     8.1628    31.6172    9.78938  101.74097    24.5938 1.5524e+00     58.408     0.7788 0.0000e+00
     59.000     8.1564    31.6202    9.79213  101.76964    24.5969 1.5520e+00     59.523     0.8031 0.0000e+00
     60.000     8.1389    31.6242    9.79404  101.78983    24.6007 1.5516e+00     60.416     0.8069 0.0000e+00
     61.000     8.1352    31.6273    9.79824  101.83351    24.6039 1.5514e+00     61.407     0.8221 0.0000e+00
     62.000     8.1378    31.6441    9.80329  101.88447    24.6200 1.5512e+00     62.623     0.8417 0.0000e+00
     63.000     8.1311    31.6423    9.80205  101.87036    24.6182 1.5509e+00     63.554     0.8391 0.0000e+00
     64.000     8.1277    31.6413    9.79543  101.80031    24.6174 1.5509e+00     64.505     0.8275 0.0000e+00
     65.000     8.1274    31.6493    9.78506  101.69260    24.6250 1.5504e+00     65.518     0.8521 0.0000e+00
     66.000     8.1219    31.6492    9.78505  101.69232    24.6250 1.5505e+00     66.406     0.8698 0.0000e+00
     67.000     8.1200    31.6523    9.79128  101.75669    24.6280 1.5506e+00     67.539     0.8968 0.0000e+00
     68.000     8.1203    31.6565    9.79897  101.83677    24.6321 1.5505e+00     68.695     0.9259 0.0000e+00
     69.000     8.1206    31.6549    9.78984  101.74309    24.6306 1.5502e+00     69.398     0.9166 0.0000e+00
     70.000     8.1208    31.6548    9.79457  101.79296    24.6304 1.5504e+00     70.424     0.8949 0.0000e+00
     71.000     8.1209    31.6543    9.79843  101.83226    24.6300 1.5503e+00     71.489     0.9274 0.0000e+00
     72.000     8.1205    31.6545    9.79462  101.79288    24.6302 1.5504e+00     72.513     0.9363 0.0000e+00
     73.000     8.1200    31.6542    9.78897  101.73361    24.6299 1.5499e+00     73.312     0.9148 0.0000e+00
     74.000     8.1191    31.6552    9.78507  101.69437    24.6308 1.5500e+00     74.225     0.9011 0.0000e+00
     75.000     8.1185    31.6561    9.78184  101.66150    24.6317 1.5502e+00     75.252     0.9169 0.0000e+00
     76.000     8.1185    31.6562    9.78433  101.68571    24.6318 1.5502e+00     75.924     0.9103 0.0000e+00
     77.000     8.1183    31.6570    9.78366  101.68036    24.6325 1.5499e+00     76.735     0.9464 0.0000e+00
     78.000     8.1192    31.6569    9.79188  101.76410    24.6323 1.5497e+00     77.923     0.9095 0.0000e+00
     77.000     8.1192    31.6562    9.78494  101.69368    24.6317 1.5497e+00     77.423     0.8830 0.0000e+00
     76.000     8.1188    31.6565    9.78729  101.73161    24.6321 1.5495e+00     75.748     0.9015 0.0000e+00
     75.000     8.1196    31.6557    9.77589  101.61574    24.6313 1.5495e+00     74.880     0.9281 0.0000e+00
     74.000     8.1196    31.6568    9.78272  101.68463    24.6323 1.5494e+00     74.159     0.8534 0.0000e+00
     73.000     8.1197    31.6556    9.78712  101.72979    24.6312 1.5495e+00     73.453     0.8684 0.0000e+00
     72.000     8.1196    31.6553    9.79003  101.75863    24.6310 1.5493e+00     72.409     0.8801 0.0000e+00
     71.000     8.1193    31.6552    9.78978  101.75657    24.6309 1.5494e+00     71.550     0.8903 0.0000e+00
     70.000     8.1209    31.6553    9.78523  101.71039    24.6310 1.5495e+00     70.656     0.8629 0.0000e+00
     69.000     8.1241    31.6548    9.78971  101.75910    24.6305 1.5494e+00     69.677     0.9119 0.0000e+00
     68.000     8.1252    31.6520    9.78683  101.72976    24.6278 1.5494e+00     68.589     0.8964 0.0000e+00
     67.000     8.1271    31.6515    9.78633  101.72188    24.6273 1.5496e+00     67.691     0.8771 0.0000e+00
     66.000     8.1284    31.6497    9.79033  101.76481    24.6255 1.5495e+00     66.699     0.8645 0.0000e+00
     65.000     8.1282    31.6484    9.79301  101.82706    24.6244 1.5495e+00     65.630     0.8649 0.0000e+00
     64.000     8.1277    31.6480    9.79265  101.85426    24.6240 1.5496e+00     64.665     0.8698 0.0000e+00
     63.000     8.1267    31.6485    9.78991  101.85436    24.6245 1.5498e+00     63.560     0.8432 0.0000e+00
     62.000     8.1272    31.6487    9.78966  101.87330    24.6247 1.5497e+00     62.685     0.8487 0.0000e+00
     61.000     8.1280    31.6486    9.78505  101.83774    24.6246 1.5498e+00     61.518     0.8483 0.0000e+00
     60.000     8.1297    31.6483    9.78282  101.83736    24.6243 1.5499e+00     60.497     0.8428 0.0000e+00
     59.000     8.1295    31.6471    9.78429  101.86626    24.6232 1.5505e+00     59.458     0.8213 0.0000e+00
     58.000     8.1277    31.6465    9.78222  101.85407    24.6226 1.5505e+00     58.585     0.8261 0.0000e+00
     57.000     8.1291    31.6475    9.78154  101.86224    24.6236 1.5506e+00     57.417     0.8160 0.0000e+00
     56.000     8.1517    31.6476    9.78422  101.90037    24.6236 1.5511e+00     56.468     0.8364 0.0000e+00
     55.000     8.1658    31.6360    9.78767  101.94399    24.6123 1.5513e+00     55.503     0.8178 0.0000e+00
     54.000     8.1772    31.6235    9.78821  101.95898    24.6002 1.5518e+00     54.691     0.7915 0.0000e+00
     53.000     8.1915    31.6138    9.78299  101.92047    24.5906 1.5525e+00     53.618     0.7592 0.0000e+00
     52.000     8.1955    31.5977    9.77960  101.91106    24.5750 1.5530e+00     52.505     0.7660 0.0000e+00
     51.000     8.2067    31.5990    9.77581  101.87777    24.5762 1.5537e+00     51.675     0.7359 0.0000e+00
     50.000     8.2156    31.5910    9.77680  101.89702    24.5683 1.5546e+00     50.662     0.7402 0.0000e+00
     49.000     8.2226    31.5829    9.77759  101.91487    24.5604 1.5560e+00     49.610     0.7251 0.0000e+00
     48.000     8.2307    31.5780    9.78307  101.98188    24.5555 1.5571e+00     48.585     0.7052 0.0000e+00
     47.000     8.2370    31.5727    9.78456  102.00769    24.5504 1.5591e+00     47.661     0.7099 0.0000e+00
     46.000     8.2434    31.5669    9.78848  102.06269    24.5447 1.5607e+00     46.554     0.7052 0.0000e+00
     45.000     8.2530    31.5626    9.78825  102.06866    24.5404 1.5628e+00     45.505     0.6962 0.0000e+00
     44.000     8.2659    31.5565    9.78465  102.04432    24.5343 1.5655e+00     44.510     0.6865 0.0000e+00
     43.000     8.2728    31.5467    9.78123  102.02945    24.5246 1.5689e+00     43.465     0.7179 0.0000e+00
     42.000     8.2794    31.5423    9.78393  102.07993    24.5202 1.5726e+00     42.457     0.7165 0.0000e+00
     41.000     8.2855    31.5374    9.78026  102.06528    24.5153 1.5773e+00     41.396     0.7271 0.0000e+00
     40.000     8.2928    31.5333    9.77527  102.05381    24.5113 1.5825e+00     40.287     0.7273 0.0000e+00
     39.000     8.3023    31.5277    9.77004  102.04210    24.5056 1.5888e+00     39.002     0.7199 0.0000e+00
     38.000     8.3050    31.5227    9.77916  102.16383    24.5007 1.5970e+00     38.008     0.7153 0.0000e+00
     37.000     8.3124    31.5208    9.77334  102.12635    24.4988 1.6062e+00     36.953     0.7585 0.0000e+00
     36.000     8.3191    31.5177    9.77547  102.16731    24.4957 1.6169e+00     36.211     0.7103 0.0000e+00
     35.000     8.3282    31.5126    9.76371  102.07253    24.4906 1.6306e+00     35.228     0.6905 0.0000e+00
     34.000     8.3362    31.5074    9.76246  102.07298    24.4854 1.6456e+00     34.343     0.6775 0.0000e+00
     33.000     8.3454    31.5012    9.76685  102.12825    24.4792 1.6644e+00     33.318     0.6912 0.0000e+00
     32.000     8.3616    31.4957    9.77190  102.18895    24.4737 1.6862e+00     32.171     0.6707 0.0000e+00
     31.000     8.3750    31.4869    9.77195  102.19345    24.4648 1.7136e+00     31.231     0.6634 0.0000e+00
     30.000     8.3899    31.4766    9.76333  102.10984    24.4544 1.7466e+00     30.198     0.6789 0.0000e+00
     29.000     8.4002    31.4689    9.76855  102.17248    24.4470 1.7832e+00     29.413     0.6863 0.0000e+00
     28.000     8.4094    31.4589    9.76381  102.13594    24.4371 1.8322e+00     28.527     0.6696 0.0000e+00
     27.000     8.4192    31.4516    9.76097  102.11944    24.4300 1.8898e+00     27.611     0.6870 0.0000e+00
     26.000     8.4380    31.4410    9.76373  102.17554    24.4196 1.9590e+00     26.548     0.6668 0.0000e+00
     25.000     8.4505    31.4259    9.76750  102.24044    24.4052 2.0451e+00     25.491     0.6879 0.0000e+00
     24.000     8.4580    31.4136    9.76485  102.25454    24.3932 2.1452e+00     24.238     0.6706 0.0000e+00
     23.000     8.4621    31.4098    9.75949  102.28571    24.3893 2.2638e+00     23.027     0.6895 0.0000e+00
     22.000     8.4663    31.4074    9.75090  102.31706    24.3869 2.4104e+00     21.947     0.6632 0.0000e+00
     21.000     8.4733    31.4046    9.74539  102.27816    24.3842 2.5966e+00     20.991     0.6789 0.0000e+00
     20.000     8.4810    31.4012    9.74240  102.25953    24.3808 2.8170e+00     20.115     0.6619 0.0000e+00
     19.000     8.4920    31.3923    9.73413  102.21989    24.3726 3.0883e+00     19.119     0.6784 0.0000e+00
     18.000     8.5041    31.3850    9.73124  102.25687    24.3658 3.4203e+00     18.306     0.6585 0.0000e+00
     17.000     8.5133    31.3731    9.72986  102.33161    24.3546 3.8411e+00     17.443     0.6561 0.0000e+00
     16.000     8.5281    31.3642    9.72049  102.27918    24.3459 4.3364e+00     16.580     0.6672 0.0000e+00
     15.000     8.5476    31.3517    9.71081  102.20090    24.3339 4.9914e+00     15.643     0.6863 0.0000e+00
     14.000     8.6043    31.3315    9.69658  102.07447    24.3146 5.7907e+00     14.603     0.6639 0.0000e+00
     13.000     8.6645    31.2687    9.68520  101.97657    24.2532 6.8382e+00     13.339     0.6531 0.0000e+00
     12.000     8.6968    31.2408    9.68693  102.01842    24.2256 8.1193e+00     12.174     0.6782 0.0000e+00
     11.000     8.7702    31.2124    9.67857  101.99076    24.1976 9.8459e+00     11.314     0.6863 0.0000e+00
     10.000     8.8228    31.1361    9.66981  101.99017    24.1245 1.2038e+01     10.276     0.6563 0.0000e+00
      9.000     8.8459    31.1029    9.65108  101.91005    24.0930 1.5136e+01      9.148     0.6647 0.0000e+00
      8.000     8.8679    31.0851    9.62514  101.70986    24.0761 1.9019e+01      7.911     0.6678 0.0000e+00
      7.000     8.9202    31.0529    9.82793   99.90699    24.0461 2.4706e+01      6.790     0.6887 0.0000e+00
      6.000     8.9693    31.0068   10.86072   96.66186    24.0032 3.1373e+01      5.785     0.6765 0.0000e+00
      5.000     9.0098    30.9666   10.55878   93.60103    23.9651 4.1014e+01      4.806     0.6761 0.0000e+00
      4.000     9.0368    30.9502 -9.990e-29 -9.990e-29    23.9482 5.4649e+01      4.018     0.6778 0.0000e+00
      3.000     9.0604    30.9254 -9.990e-29 -9.990e-29    23.9230 6.4116e+01      3.034     0.7776 0.0000e+00
      2.000     9.0745    30.9072 -9.990e-29 -9.990e-29    23.9069 9.1056e+01      2.437     0.7766 0.0000e+00
      1.000     9.0845    30.8732 -9.990e-29 -9.990e-29    23.8774 2.8106e+02      1.817     0.8015 0.0000e+00
