* Sea-Bird SBE19plus Data File:
* FileName = C:\data\otf\2007\ctd-07149.hex
* Software Version 1.55
* Temperature SN =  5061
* Conductivity SN =  5061
* System UpLoad Time = Aug 15 2007 17:42:22
* ds
* SeacatPlus V 1.6a  SERIAL NO. 5061    15 Aug 2007  15:31:53
* vbatt = 10.9, vlith =  8.7, ioper =  61.6 ma, ipump =  57.5 ma, 
* iext01 =  95.2 ma
* iext23 =  58.1 ma
* 
* status = not logging
* number of scans to average = 1
* samples = 153039, free = 288466, casts = 154
* mode = profile, minimum cond freq = 3000, pump delay = 60 sec
* autorun = no, ignore magnetic switch = no
* battery type = alkaline, battery cutoff =  7.3 volts
* pressure sensor = strain gauge, range = 870.0
* SBE 38 = no, Gas Tension Device = no
* Ext Volt 0 = yes, Ext Volt 1 = yes, Ext Volt 2 = yes, Ext Volt 3 = yes
* echo commands = yes
* output format = raw HEX
* S>
* 
* SeacatPlus V 1.6a  SERIAL NO. 5061    15 Aug 2007  15:32:18
* temperature:  05-oct-06
*     TA0 = 1.254184e-03
*     TA1 = 2.596730e-04
*     TA2 = 5.165612e-07
*     TA3 = 1.318931e-07
*     TOFFSET = 0.000000e+00
* conductivity:  05-oct-06
*     G = -9.978144e-01
*     H = 1.555200e-01
*     I = -4.839108e-04
*     J = 6.121100e-05
*     CF0 = 2.539936e+03
*     CPCOR = -9.570000e-08
*     CTCOR = 3.250000e-06
*     CSLOPE = 1.000000e+00
* pressure S/N = 2362539, range = 870 psia:  24-aug-06
*     PA0 = 2.171091e-01
*     PA1 = 2.647085e-03
*     PA2 = 1.419397e-11
*     PTCA0 = 5.242437e+05
*     PTCA1 = 7.545345e+00
*     PTCA2 = -1.835354e-01
*     PTCB0 = 2.537125e+01
*     PTCB1 = -1.750000e-03
*     PTCB2 = 0.000000e+00
*     PTEMPA0 = -5.753989e+01
*     PTEMPA1 = 5.235813e+01
*     PTEMPA2 = -4.015521e-02
*     POFFSET = 0.000000e+00
* volt 0: offset = -4.682842e-02, slope = 1.249147e+00
* volt 1: offset = -4.695158e-02, slope = 1.248145e+00
* volt 2: offset = -4.685263e-02, slope = 1.248783e+00
* volt 3: offset = -4.690316e-02, slope = 1.249508e+00
*     EXTFREQSF = 1.000002e+00
* dh
* cast 149 29 Jul 2007 10:37:18 samples 147202 to 148257, avg = 1, stop = mag switch
* S> 
# nquan = 10
# nvalues = 129                         
# units = specified
# name 0 = depSM: Depth [salt water, m]
# name 1 = tv290C: Temperature [ITS-90, deg C]
# name 2 = sal00: Salinity [PSU]
# name 3 = sbeox0Mg/L: Oxygen, SBE 43 [mg/l]
# name 4 = sbeox0PS: Oxygen, SBE 43 [% saturation]
# name 5 = sigma-t00: Density [sigma-t, Kg/m^3 ]
# name 6 = par: PAR/Irradiance, Biospherical/Licor
# name 7 = prdM: Pressure, Strain Gauge [db]
# name 8 = flECO-AFL: Fluorescence, Wetlab ECO-AFL/FL [mg/m^3]
# name 9 = flag: flag
# span 0 =      1.000,     67.000       
# span 1 =     8.5469,     9.3268       
# span 2 =    30.9049,    31.6078       
# span 3 =    8.28722,    9.43758       
# span 4 =   87.96993,   98.27529       
# span 5 =    23.8633,    24.5314       
# span 6 = 1.5471e+00, 1.3406e+03       
# span 7 =      1.048,     67.571       
# span 8 =     0.5077,     1.2124       
# span 9 = 0.0000e+00, 0.0000e+00       
# interval = meters: 1                  
# start_time = Jul 29 2007 10:37:18
# bad_flag = -9.990e-29
# sensor 0 = Frequency 0  temperature, 5061, 05-Oct-06
# sensor 1 = Frequency 1  conductivity, 5061, 05-Oct-06, cpcor = -9.5700e-08
# sensor 2 = Pressure Number
# sensor 3 = Extrnl Volt  0  irradiance (PAR), primary, 4751, 08/10/06
# sensor 4 = Extrnl Volt  1  Oxygen, SBE, primary, 1081, 10/24/06
# sensor 5 = Extrnl Volt  2  WET Labs, ECO_AFL
# sensor 6 = Extrnl Volt  3  userpoly 0, 0627, 10/11/06
# datcnv_date = Oct 15 2007 14:49:54, 5.37e
# datcnv_in = I:\bob d\OTF_GEM\2007\ctd-07149.hex I:\Willette\OTF\CTD\5061.con
# datcnv_skipover = 0
# filter_date = Oct 15 2007 15:02:44, 5.37e
# filter_in = I:\Willette\OTF\CTD\2007\CTD Data\ctd-07149.cnv
# filter_low_pass_tc_A = 1.000
# filter_low_pass_tc_B = 0.150
# filter_low_pass_A_vars = prdM
# filter_low_pass_B_vars =
# loopedit_date = Oct 15 2007 15:07:01, 5.37e
# loopedit_in = I:\Willette\OTF\CTD\2007\CTD Data\ctd-07149.cnv
# loopedit_minVelocity = 0.250                                                                                            
# loopedit_surfaceSoak: minDepth = 5.0, maxDepth = 20, useDeckPress = 1                                                   
# loopedit_excl_bad_scans = yes
# alignctd_date = Oct 15 2007 15:14:25, 5.37e
# alignctd_in = I:\Willette\OTF\CTD\2007\CTD Data\ctd-07149.cnv
# alignctd_adv = tv290C 0.500, sbeox0Mg/L 4.000, sbeox0PS 4.000                                                                                                                                                                      
# binavg_date = Oct 15 2007 15:18:54, 5.37e
# binavg_in = I:\Willette\OTF\CTD\2007\CTD Data\ctd-07149.cnv
# binavg_bintype = meters
# binavg_binsize = 1
# binavg_excl_bad_scans = yes
# binavg_skipover = 0
# binavg_surface_bin = no, min = 0.000, max = 0.000, value = 0.000
# file_type = ascii
*END*
      5.000     9.2302    31.1376    8.28722   87.96993    24.0561 2.0612e+02      5.127     0.7922 0.0000e+00
      6.000     9.2254    31.1067    8.40613   89.03820    24.0369 1.7676e+02      6.198     0.8139 0.0000e+00
      7.000     9.2339    31.0752    8.50971   90.04828    24.0105 1.4597e+02      7.106     0.8244 0.0000e+00
      8.000     9.1838    31.0980    8.60097   90.99296    24.0324 1.1882e+02      8.126     0.8620 0.0000e+00
      9.000     9.1011    31.1344    8.62821   91.27951    24.0707 9.9239e+01      9.180     0.8861 0.0000e+00
     10.000     9.0461    31.1785    8.64160   91.42054    24.1170 8.1578e+01     10.156     0.8942 0.0000e+00
     11.000     9.0304    31.2010    8.67432   91.76104    24.1388 6.6584e+01     11.035     0.9181 0.0000e+00
     12.000     9.0255    31.2156    8.70888   92.12607    24.1521 5.4729e+01     12.057     0.9291 0.0000e+00
     13.000     9.0300    31.2102    8.69456   91.85693    24.1478 4.5451e+01     13.151     0.9429 0.0000e+00
     14.000     9.0291    31.1978    8.68846   91.72839    24.1377 3.7467e+01     14.155     0.9403 0.0000e+00
     15.000     9.0272    31.1960    8.70601   91.89764    24.1365 3.0845e+01     15.073     0.9068 0.0000e+00
     16.000     8.9964    31.2058    8.72887   92.13658    24.1454 2.5295e+01     16.135     0.9041 0.0000e+00
     17.000     8.9236    31.2423    8.73353   92.17896    24.1850 2.0925e+01     17.161     0.9902 0.0000e+00
     18.000     8.9139    31.2662    8.72411   92.07388    24.2083 1.7417e+01     18.156     0.9905 0.0000e+00
     19.000     8.9109    31.2692    8.73492   92.22683    24.2118 1.4565e+01     19.144     0.9761 0.0000e+00
     20.000     8.9096    31.2658    8.77429   92.66036    24.2087 1.2167e+01     20.163     0.9431 0.0000e+00
     21.000     8.9067    31.2691    8.74699   92.37789    24.2128 1.0211e+01     21.212     0.9717 0.0000e+00
     22.000     8.9342    31.2457    8.70763   91.95347    24.1915 8.6445e+00     22.186     0.9676 0.0000e+00
     23.000     8.9426    31.2333    8.75519   92.45640    24.1793 7.3278e+00     23.188     0.9511 0.0000e+00
     24.000     8.9467    31.2298    8.74347   92.33354    24.1754 6.2941e+00     24.287     0.9304 0.0000e+00
     25.000     8.9435    31.2228    8.74358   92.33709    24.1702 5.4587e+00     25.239     0.9249 0.0000e+00
     26.000     8.9435    31.2254    8.74120   92.31313    24.1726 4.7273e+00     26.227     0.9177 0.0000e+00
     27.000     8.9452    31.2233    8.71294   92.00289    24.1707 4.1552e+00     27.257     0.9172 0.0000e+00
     28.000     8.9464    31.2209    8.73296   92.21384    24.1686 3.6867e+00     28.246     0.9280 0.0000e+00
     29.000     8.9458    31.2214    8.74790   92.38701    24.1688 3.2994e+00     29.280     0.9473 0.0000e+00
     30.000     8.9400    31.2236    8.69347   91.81260    24.1714 2.9874e+00     30.273     0.9173 0.0000e+00
     31.000     8.9405    31.2229    8.62688   91.09567    24.1711 2.7231e+00     31.265     0.9114 0.0000e+00
     32.000     8.9487    31.2246    8.66887   91.52679    24.1714 2.5047e+00     32.299     0.8966 0.0000e+00
     33.000     8.9487    31.2147    8.60313   90.82112    24.1630 2.3381e+00     33.338     0.9093 0.0000e+00
     34.000     8.9386    31.2200    8.63669   91.09944    24.1683 2.1970e+00     34.276     0.8866 0.0000e+00
     35.000     8.9297    31.2383    8.67732   91.50021    24.1845 2.0775e+00     35.344     0.9061 0.0000e+00
     36.000     8.9082    31.2360    8.68034   91.43642    24.1834 1.9861e+00     36.352     0.9002 0.0000e+00
     37.000     8.8641    31.2903    8.70195   91.60498    24.2341 1.9050e+00     37.343     0.9249 0.0000e+00
     38.000     8.8390    31.2970    8.77949   92.41612    24.2414 1.8440e+00     38.383     0.9294 0.0000e+00
     39.000     8.7798    31.3601    8.90113   93.70287    24.3001 1.7915e+00     39.313     0.9573 0.0000e+00
     40.000     8.7593    31.3679    8.99119   94.59995    24.3114 1.7488e+00     40.375     0.9648 0.0000e+00
     41.000     8.7687    31.3613    9.02710   94.93343    24.3055 1.7127e+00     41.395     0.9507 0.0000e+00
     42.000     8.7418    31.3784    9.05302   95.16714    24.3209 1.6842e+00     42.394     0.9648 0.0000e+00
     43.000     8.7110    31.4110    9.07238   95.35128    24.3512 1.6599e+00     43.398     0.9885 0.0000e+00
     44.000     8.6815    31.4434    9.08513   95.46729    24.3814 1.6407e+00     44.463     0.9920 0.0000e+00
     45.000     8.6675    31.4608    9.08891   95.49844    24.3977 1.6251e+00     45.428     1.0005 0.0000e+00
     46.000     8.6575    31.4716    9.10299   95.62625    24.4076 1.6117e+00     46.388     0.9989 0.0000e+00
     47.000     8.6482    31.4846    9.11343   95.70397    24.4195 1.6005e+00     47.489     0.9827 0.0000e+00
     48.000     8.6356    31.4961    9.11128   95.67320    24.4298 1.5914e+00     48.456     0.9879 0.0000e+00
     49.000     8.6162    31.5192    9.11510   95.71114    24.4507 1.5837e+00     49.441     1.0045 0.0000e+00
     50.000     8.6057    31.5348    9.12412   95.78744    24.4651 1.5777e+00     50.467     1.0047 0.0000e+00
     51.000     8.6032    31.5389    9.12605   95.80613    24.4688 1.5722e+00     51.449     1.0109 0.0000e+00
     52.000     8.5909    31.5519    9.13482   95.89606    24.4805 1.5680e+00     52.445     1.0017 0.0000e+00
     53.000     8.5894    31.5565    9.14272   95.98131    24.4849 1.5645e+00     53.540     1.0073 0.0000e+00
     54.000     8.5891    31.5562    9.14802   96.02802    24.4847 1.5614e+00     54.519     1.0089 0.0000e+00
     55.000     8.5881    31.5558    9.14954   96.03619    24.4843 1.5588e+00     55.525     1.0068 0.0000e+00
     56.000     8.5810    31.5647    9.14988   96.03733    24.4923 1.5567e+00     56.546     1.0906 0.0000e+00
     57.000     8.5781    31.5687    9.14572   95.99329    24.4961 1.5552e+00     57.531     1.0975 0.0000e+00
     58.000     8.5765    31.5705    9.14083   95.94335    24.4977 1.5534e+00     58.564     1.0917 0.0000e+00
     59.000     8.5764    31.5708    9.14687   96.00906    24.4980 1.5526e+00     59.542     1.0996 0.0000e+00
     60.000     8.5782    31.5691    9.15485   96.09367    24.4964 1.5512e+00     60.572     1.1030 0.0000e+00
     61.000     8.5798    31.5672    9.15031   96.04079    24.4947 1.5503e+00     61.588     1.1065 0.0000e+00
     62.000     8.5789    31.5677    9.15107   96.03591    24.4951 1.5496e+00     62.596     1.0966 0.0000e+00
     63.000     8.5687    31.5783    9.15254   96.04824    24.5045 1.5489e+00     63.578     1.1004 0.0000e+00
     64.000     8.5661    31.5836    9.15324   96.05627    24.5095 1.5484e+00     64.604     1.0888 0.0000e+00
     65.000     8.5641    31.5848    9.15399   96.04609    24.5106 1.5482e+00     65.593     1.1066 0.0000e+00
     66.000     8.5514    31.6001    9.15444   96.04255    24.5243 1.5478e+00     66.622     1.1223 0.0000e+00
     67.000     8.5469    31.6078    9.15715   96.07831    24.5314 1.5471e+00     67.571     1.1808 0.0000e+00
     66.000     8.5510    31.6050    9.16271   96.14594    24.5286 1.5476e+00     66.430     1.1862 0.0000e+00
     65.000     8.5523    31.6027    9.16108   96.13400    24.5266 1.5477e+00     65.602     1.2123 0.0000e+00
     64.000     8.5560    31.5975    9.16256   96.15545    24.5221 1.5482e+00     64.650     1.2124 0.0000e+00
     63.000     8.5592    31.5935    9.16187   96.14985    24.5185 1.5484e+00     63.623     1.1905 0.0000e+00
     62.000     8.5649    31.5873    9.16138   96.14987    24.5130 1.5489e+00     62.606     1.1702 0.0000e+00
     61.000     8.5672    31.5825    9.16327   96.18196    24.5085 1.5493e+00     61.599     1.1969 0.0000e+00
     60.000     8.5693    31.5804    9.15460   96.10216    24.5067 1.5506e+00     60.595     1.1545 0.0000e+00
     59.000     8.5782    31.5709    9.15995   96.15649    24.4983 1.5519e+00     59.573     1.1696 0.0000e+00
     58.000     8.5872    31.5595    9.16167   96.18237    24.4878 1.5533e+00     58.550     1.1705 0.0000e+00
     57.000     8.5864    31.5580    9.15515   96.12396    24.4865 1.5543e+00     57.572     1.1430 0.0000e+00
     56.000     8.5916    31.5538    9.16257   96.21783    24.4827 1.5561e+00     56.530     1.1364 0.0000e+00
     55.000     8.5998    31.5438    9.16836   96.29409    24.4737 1.5580e+00     55.541     1.1246 0.0000e+00
     54.000     8.6122    31.5301    9.16616   96.27136    24.4614 1.5605e+00     54.470     1.1245 0.0000e+00
     53.000     8.6217    31.5159    9.17151   96.33077    24.4484 1.5636e+00     53.532     1.1323 0.0000e+00
     52.000     8.6220    31.5149    9.16603   96.29274    24.4475 1.5671e+00     52.503     1.1165 0.0000e+00
     51.000     8.6239    31.5125    9.16202   96.26345    24.4453 1.5714e+00     51.520     1.0869 0.0000e+00
     50.000     8.6411    31.4946    9.16564   96.31323    24.4293 1.5766e+00     50.447     1.1067 0.0000e+00
     49.000     8.6469    31.4855    9.15590   96.23900    24.4207 1.5828e+00     49.372     1.1119 0.0000e+00
     48.000     8.6528    31.4798    9.15912   96.30507    24.4156 1.5900e+00     48.414     1.0984 0.0000e+00
     47.000     8.6676    31.4689    9.16244   96.41101    24.4058 1.5984e+00     47.403     1.1026 0.0000e+00
     46.000     8.6747    31.4552    9.17208   96.53671    24.3930 1.6090e+00     46.445     1.1141 0.0000e+00
     45.000     8.7019    31.4379    9.17173   96.67828    24.3776 1.6217e+00     45.469     1.1072 0.0000e+00
     44.000     8.7441    31.3849    9.18083   96.80812    24.3290 1.6379e+00     44.464     1.0790 0.0000e+00
     43.000     8.7955    31.3564    9.18511   96.81251    24.3020 1.6571e+00     43.460     1.0613 0.0000e+00
     42.000     8.8678    31.2694    9.19387   96.85843    24.2195 1.6820e+00     42.417     1.0270 0.0000e+00
     41.000     8.8432    31.2792    9.18944   96.87198    24.2286 1.7117e+00     41.403     1.0363 0.0000e+00
     40.000     8.8146    31.3019    9.17695   96.82618    24.2501 1.7471e+00     40.443     1.0405 0.0000e+00
     39.000     8.8676    31.2832    9.18144   96.81001    24.2325 1.7922e+00     39.376     1.0329 0.0000e+00
     38.000     8.8864    31.2405    9.18529   96.90058    24.1917 1.8485e+00     38.396     1.0319 0.0000e+00
     37.000     8.8799    31.2636    9.20528   97.17260    24.2138 1.9172e+00     37.316     1.0444 0.0000e+00
     36.000     8.9275    31.2164    9.20578   97.16930    24.1682 1.9950e+00     36.261     1.0004 0.0000e+00
     35.000     8.9282    31.2142    9.20588   97.17176    24.1660 2.0890e+00     35.321     0.9626 0.0000e+00
     34.000     8.9248    31.2171    9.20975   97.21814    24.1687 2.2095e+00     34.294     0.9626 0.0000e+00
     33.000     8.9254    31.2176    9.20707   97.20452    24.1691 2.3563e+00     33.320     0.9555 0.0000e+00
     32.000     8.9278    31.2159    9.20060   97.15121    24.1676 2.5352e+00     32.348     0.9648 0.0000e+00
     31.000     8.9353    31.2125    9.20128   97.15264    24.1641 2.7584e+00     31.300     0.9474 0.0000e+00
     30.000     8.9458    31.2032    9.20437   97.19549    24.1551 3.0327e+00     30.342     0.9113 0.0000e+00
     29.000     8.9427    31.2034    9.21248   97.29617    24.1552 3.3660e+00     29.297     0.9088 0.0000e+00
     28.000     8.9539    31.1982    9.21276   97.30263    24.1499 3.7909e+00     28.311     0.9008 0.0000e+00
     27.000     8.9589    31.1908    9.21588   97.34692    24.1428 4.2921e+00     27.266     0.8991 0.0000e+00
     26.000     8.9500    31.2003    9.21875   97.43874    24.1519 4.9781e+00     26.113     0.9281 0.0000e+00
     25.000     8.9694    31.1939    9.22170   97.46830    24.1453 5.6946e+00     25.122     0.9116 0.0000e+00
     24.000     9.0017    31.1772    9.21996   97.45568    24.1275 6.5771e+00     24.273     0.8789 0.0000e+00
     23.000     9.0005    31.1643    9.22466   97.49886    24.1153 7.7622e+00     23.292     0.8690 0.0000e+00
     22.000     9.0040    31.1693    9.22619   97.49626    24.1196 9.2320e+00     22.248     0.8740 0.0000e+00
     21.000     8.9522    31.1813    9.23219   97.56240    24.1335 1.0905e+01     21.266     0.9228 0.0000e+00
     20.000 -9.990e-29 -9.990e-29 -9.990e-29 -9.990e-29 -9.990e-29 -9.990e-29 -9.990e-29 -9.990e-29 -9.990e-29
     19.000 -9.990e-29 -9.990e-29 -9.990e-29 -9.990e-29 -9.990e-29 -9.990e-29 -9.990e-29 -9.990e-29 -9.990e-29
     18.000     9.0201    31.1575    9.23511   97.68342    24.1079 1.9838e+01     18.036     0.8725 0.0000e+00
     17.000     9.0333    31.1508    9.24109   97.77766    24.1008 2.3713e+01     17.173     0.8640 0.0000e+00
     16.000     9.0515    31.1403    9.24408   97.82974    24.0902 2.8885e+01     16.087     0.8538 0.0000e+00
     15.000     9.0638    31.1279    9.24273   97.83449    24.0781 3.5354e+01     15.124     0.8706 0.0000e+00
     14.000     9.0713    31.1250    9.23391   97.74344    24.0750 4.3389e+01     14.109     0.8738 0.0000e+00
     13.000     9.0779    31.1185    9.24166   97.84012    24.0685 5.3331e+01     13.100     0.8941 0.0000e+00
     12.000     9.0796    31.1169    9.24098   97.84420    24.0670 6.5235e+01     12.061     0.9184 0.0000e+00
     11.000     9.0871    31.1121    9.23921   97.83225    24.0624 8.1441e+01     11.117     0.9182 0.0000e+00
     10.000     9.0952    31.1034    9.24000   97.86762    24.0542 1.0001e+02     10.002     0.9250 0.0000e+00
      9.000     9.0964    31.1015    9.24540   97.94710    24.0523 1.2438e+02      9.146     0.9051 0.0000e+00
      8.000     9.1074    31.0969    9.24619   97.98564    24.0478 1.5591e+02      8.045     0.8532 0.0000e+00
      7.000     9.1227    31.0849    9.24008   97.94820    24.0361 1.9199e+02      7.086     0.7782 0.0000e+00
      6.000     9.1393    31.0717    9.24295   98.04090    24.0232 2.4573e+02      6.096     0.7072 0.0000e+00
      5.000     9.1577    31.0575    9.24289   98.12723    24.0095 3.0439e+02      5.056     0.6614 0.0000e+00
      4.000     9.1955    31.0296    9.24295   98.22827    23.9827 3.8935e+02      4.072     0.6114 0.0000e+00
      3.000     9.2559    30.9815    9.24525   98.27529    23.9368 5.5071e+02      2.999     0.6021 0.0000e+00
      2.000     9.3142    30.9251    9.21201   97.97900    23.8829 6.2652e+02      2.060     0.5546 0.0000e+00
      1.000     9.3268    30.9049    9.43758   96.81392    23.8633 1.3406e+03      1.048     0.5077 0.0000e+00
