* Sea-Bird SBE19plus Data File:
* FileName = C:\data\otf\2007\ctd-07064.hex
* Software Version 1.55
* Temperature SN =  5061
* Conductivity SN =  5061
* System UpLoad Time = Aug 15 2007 16:14:53
* ds
* SeacatPlus V 1.6a  SERIAL NO. 5061    15 Aug 2007  15:31:53
* vbatt = 10.9, vlith =  8.7, ioper =  61.6 ma, ipump =  57.5 ma, 
* iext01 =  95.2 ma
* iext23 =  58.1 ma
* 
* status = not logging
* number of scans to average = 1
* samples = 153039, free = 288466, casts = 154
* mode = profile, minimum cond freq = 3000, pump delay = 60 sec
* autorun = no, ignore magnetic switch = no
* battery type = alkaline, battery cutoff =  7.3 volts
* pressure sensor = strain gauge, range = 870.0
* SBE 38 = no, Gas Tension Device = no
* Ext Volt 0 = yes, Ext Volt 1 = yes, Ext Volt 2 = yes, Ext Volt 3 = yes
* echo commands = yes
* output format = raw HEX
* S>
* 
* SeacatPlus V 1.6a  SERIAL NO. 5061    15 Aug 2007  15:32:18
* temperature:  05-oct-06
*     TA0 = 1.254184e-03
*     TA1 = 2.596730e-04
*     TA2 = 5.165612e-07
*     TA3 = 1.318931e-07
*     TOFFSET = 0.000000e+00
* conductivity:  05-oct-06
*     G = -9.978144e-01
*     H = 1.555200e-01
*     I = -4.839108e-04
*     J = 6.121100e-05
*     CF0 = 2.539936e+03
*     CPCOR = -9.570000e-08
*     CTCOR = 3.250000e-06
*     CSLOPE = 1.000000e+00
* pressure S/N = 2362539, range = 870 psia:  24-aug-06
*     PA0 = 2.171091e-01
*     PA1 = 2.647085e-03
*     PA2 = 1.419397e-11
*     PTCA0 = 5.242437e+05
*     PTCA1 = 7.545345e+00
*     PTCA2 = -1.835354e-01
*     PTCB0 = 2.537125e+01
*     PTCB1 = -1.750000e-03
*     PTCB2 = 0.000000e+00
*     PTEMPA0 = -5.753989e+01
*     PTEMPA1 = 5.235813e+01
*     PTEMPA2 = -4.015521e-02
*     POFFSET = 0.000000e+00
* volt 0: offset = -4.682842e-02, slope = 1.249147e+00
* volt 1: offset = -4.695158e-02, slope = 1.248145e+00
* volt 2: offset = -4.685263e-02, slope = 1.248783e+00
* volt 3: offset = -4.690316e-02, slope = 1.249508e+00
*     EXTFREQSF = 1.000002e+00
* dh
* cast  64 13 Jul 2007 09:50:22 samples 46735 to 46938, avg = 4, stop = mag switch
* S> 
# nquan = 10
# nvalues = 79                          
# units = specified
# name 0 = depSM: Depth [salt water, m]
# name 1 = tv290C: Temperature [ITS-90, deg C]
# name 2 = sal00: Salinity [PSU]
# name 3 = sbeox0Mg/L: Oxygen, SBE 43 [mg/l]
# name 4 = sbeox0PS: Oxygen, SBE 43 [% saturation]
# name 5 = sigma-t00: Density [sigma-t, Kg/m^3 ]
# name 6 = par: PAR/Irradiance, Biospherical/Licor
# name 7 = prdM: Pressure, Strain Gauge [db]
# name 8 = flECO-AFL: Fluorescence, Wetlab ECO-AFL/FL [mg/m^3]
# name 9 = flag: flag
# span 0 =      1.000,     41.000       
# span 1 =     8.8153,     8.8259       
# span 2 =    31.4863,    31.5108       
# span 3 =    9.55310,   11.18878       
# span 4 =  100.76366,  104.60575       
# span 5 =    24.3948,    24.4129       
# span 6 = 1.6158e+00, 6.1376e+02       
# span 7 =      1.791,     40.433       
# span 8 =     0.7451,     1.0928       
# span 9 = 0.0000e+00, 0.0000e+00       
# interval = meters: 1                  
# start_time = Jul 13 2007 09:50:22
# bad_flag = -9.990e-29
# sensor 0 = Frequency 0  temperature, 5061, 05-Oct-06
# sensor 1 = Frequency 1  conductivity, 5061, 05-Oct-06, cpcor = -9.5700e-08
# sensor 2 = Pressure Number
# sensor 3 = Extrnl Volt  0  irradiance (PAR), primary, 4751, 08/10/06
# sensor 4 = Extrnl Volt  1  Oxygen, SBE, primary, 1081, 10/24/06
# sensor 5 = Extrnl Volt  2  WET Labs, ECO_AFL
# sensor 6 = Extrnl Volt  3  userpoly 0, 0627, 10/11/06
# datcnv_date = Oct 15 2007 14:49:45, 5.37e
# datcnv_in = I:\bob d\OTF_GEM\2007\ctd-07064.hex I:\Willette\OTF\CTD\5061.con
# datcnv_skipover = 0
# filter_date = Oct 15 2007 15:02:25, 5.37e
# filter_in = I:\Willette\OTF\CTD\2007\CTD Data\ctd-07064.cnv
# filter_low_pass_tc_A = 1.000
# filter_low_pass_tc_B = 0.150
# filter_low_pass_A_vars = prdM
# filter_low_pass_B_vars =
# loopedit_date = Oct 15 2007 15:06:47, 5.37e
# loopedit_in = I:\Willette\OTF\CTD\2007\CTD Data\ctd-07064.cnv
# loopedit_minVelocity = 0.250                                                                                            
# loopedit_surfaceSoak: minDepth = 5.0, maxDepth = 20, useDeckPress = 1                                                   
# loopedit_excl_bad_scans = yes
# alignctd_date = Oct 15 2007 15:14:15, 5.37e
# alignctd_in = I:\Willette\OTF\CTD\2007\CTD Data\ctd-07064.cnv
# alignctd_adv = tv290C 0.500, sbeox0Mg/L 4.000, sbeox0PS 4.000                                                                                                                                                                      
# binavg_date = Oct 15 2007 15:18:44, 5.37e
# binavg_in = I:\Willette\OTF\CTD\2007\CTD Data\ctd-07064.cnv
# binavg_bintype = meters
# binavg_binsize = 1
# binavg_excl_bad_scans = yes
# binavg_skipover = 0
# binavg_surface_bin = no, min = 0.000, max = 0.000, value = 0.000
# file_type = ascii
*END*
      3.000     8.8259    31.5108    9.55310  100.76366    24.4108 1.7463e+02      4.240     0.9342 0.0000e+00
      4.000     8.8247    31.5074    9.61564  101.42450    24.4098 1.4655e+02      5.023     0.9435 0.0000e+00
      5.000     8.8239    31.5098    9.66344  101.93076    24.4129 1.1905e+02      5.888     0.9282 0.0000e+00
      6.000     8.8226    31.5053    9.69867  102.30171    24.4095 9.7343e+01      6.740     1.0545 0.0000e+00
      7.000     8.8222    31.5009    9.72041  102.53100    24.4062 7.8498e+01      7.557     1.0257 0.0000e+00
      8.000     8.8176    31.5011    9.74220  102.76007    24.4064 6.4104e+01      8.351     0.9875 0.0000e+00
      9.000     8.8165    31.5010    9.75854  102.93245    24.4065 5.1655e+01      9.243     1.0447 0.0000e+00
     10.000     8.8182    31.5005    9.77212  103.07668    24.4067 4.2707e+01     10.002     1.0656 0.0000e+00
     11.000     8.8192    31.5021    9.78229  103.18103    24.4081 3.4555e+01     10.766     1.0928 0.0000e+00
     12.000     8.8192    31.5014    9.79605  103.32571    24.4074 2.7776e+01     11.747     1.0502 0.0000e+00
     13.000     8.8195    31.4991    9.80676  103.43988    24.4055 2.2928e+01     12.525     0.9859 0.0000e+00
     14.000     8.8167    31.4993    9.81834  103.56267    24.4056 1.8900e+01     13.552     0.9798 0.0000e+00
     15.000     8.8158    31.4943    9.83136  103.70089    24.4020 1.5561e+01     14.756     0.9359 0.0000e+00
     16.000     8.8171    31.4933    9.84825  103.88353    24.4015 1.2773e+01     16.863     1.0068 0.0000e+00
     17.000     8.8171    31.4921    9.86006  104.00712    24.4003 1.0804e+01     17.891     0.9423 0.0000e+00
     18.000     8.8167    31.4914    9.86386  104.04791    24.3997 9.1525e+00     18.860     0.9391 0.0000e+00
     19.000     8.8167    31.4921    9.86367  104.04496    24.4004 7.7316e+00     19.831     0.9416 0.0000e+00
     20.000     8.8170    31.4923    9.86130  104.02010    24.4005 6.6013e+00     20.728     0.9441 0.0000e+00
     21.000     8.8157    31.4920    9.86186  104.02513    24.4003 5.6484e+00     21.679     0.9363 0.0000e+00
     22.000     8.8153    31.4922    9.86461  104.05336    24.4004 4.9108e+00     22.550     0.9395 0.0000e+00
     23.000     8.8155    31.4927    9.87076  104.11693    24.4010 4.2948e+00     23.417     0.9422 0.0000e+00
     24.000     8.8157    31.4931    9.87574  104.16894    24.4014 3.7914e+00     24.299     0.9433 0.0000e+00
     25.000 -9.990e-29 -9.990e-29 -9.990e-29 -9.990e-29 -9.990e-29 -9.990e-29 -9.990e-29 -9.990e-29 -9.990e-29
     26.000     8.8166    31.4936    9.87798  104.19171    24.4017 3.1394e+00     25.714     0.9573 0.0000e+00
     27.000     8.8168    31.4928    9.88386  104.25266    24.4010 2.7562e+00     26.842     0.9495 0.0000e+00
     28.000     8.8168    31.4929    9.88059  104.21885    24.4010 2.5309e+00     27.726     0.9298 0.0000e+00
     29.000     8.8185    31.4925    9.87908  104.20288    24.4006 2.3418e+00     28.963     0.9193 0.0000e+00
     30.000     8.8178    31.4911    9.88725  104.28791    24.3993 2.1962e+00     30.149     0.9191 0.0000e+00
     31.000     8.8191    31.4908    9.88905  104.30691    24.3991 2.0802e+00     31.158     0.9247 0.0000e+00
     32.000     8.8189    31.4923    9.88745  104.29051    24.4004 1.9804e+00     32.198     0.9169 0.0000e+00
     33.000     8.8181    31.4895    9.88949  104.31136    24.3978 1.9030e+00     33.237     0.9237 0.0000e+00
     34.000     8.8186    31.4913    9.88368  104.24996    24.3995 1.8367e+00     34.112     0.9597 0.0000e+00
     35.000     8.8176    31.4912    9.88033  104.21492    24.3994 1.7869e+00     35.061     0.9913 0.0000e+00
     36.000     8.8168    31.4914    9.88320  104.24632    24.3996 1.7449e+00     35.952     0.9631 0.0000e+00
     37.000     8.8164    31.4924    9.88283  104.24274    24.4005 1.7087e+00     36.820     0.9354 0.0000e+00
     38.000     8.8160    31.4930    9.87947  104.20656    24.4010 1.6800e+00     37.636     0.9192 0.0000e+00
     39.000     8.8155    31.4932    9.87455  104.15614    24.4013 1.6565e+00     38.376     0.9352 0.0000e+00
     40.000     8.8156    31.4936    9.87540  104.16593    24.4016 1.6367e+00     39.067     0.9248 0.0000e+00
     41.000     8.8159    31.4939    9.88811  104.30150    24.4019 1.6158e+00     40.433     0.9440 0.0000e+00
     40.000     8.8166    31.4940    9.90049  104.43451    24.4017 1.6346e+00     39.954     0.9278 0.0000e+00
     39.000     8.8167    31.4934    9.90116  104.44201    24.4014 1.6538e+00     39.090     0.9392 0.0000e+00
     38.000     8.8176    31.4932    9.90302  104.46507    24.4012 1.6792e+00     38.200     0.9542 0.0000e+00
     37.000     8.8183    31.4922    9.90222  104.45417    24.4003 1.7072e+00     37.254     0.9372 0.0000e+00
     36.000     8.8190    31.4915    9.88183  104.23456    24.3996 1.7421e+00     36.187     1.0072 0.0000e+00
     35.000     8.8189    31.4914    9.88284  104.24642    24.3995 1.7869e+00     35.250     1.0050 0.0000e+00
     34.000     8.8188    31.4911    9.89006  104.32587    24.3992 1.8421e+00     34.256     0.9650 0.0000e+00
     33.000     8.8188    31.4911    9.88978  104.32191    24.3992 1.9089e+00     33.251     0.9725 0.0000e+00
     32.000     8.8201    31.4913    9.89363  104.36324    24.3994 1.9915e+00     32.239     0.9813 0.0000e+00
     31.000     8.8213    31.4904    9.88254  104.24526    24.3985 2.0913e+00     31.244     1.0691 0.0000e+00
     30.000     8.8183    31.4887    9.87352  104.14976    24.3971 2.2120e+00     30.216     1.0396 0.0000e+00
     29.000     8.8173    31.4910    9.88026  104.22118    24.3992 2.3621e+00     29.266     1.0021 0.0000e+00
     28.000     8.8186    31.4920    9.88595  104.28151    24.4001 2.5500e+00     28.220     1.0039 0.0000e+00
     27.000     8.8199    31.4910    9.88763  104.29869    24.3992 2.7798e+00     27.252     1.0042 0.0000e+00
     26.000     8.8193    31.4896    9.88439  104.26435    24.3979 3.0627e+00     26.180     0.9787 0.0000e+00
     25.000     8.8196    31.4902    9.87983  104.21569    24.3984 3.4166e+00     25.237     1.0197 0.0000e+00
     24.000     8.8199    31.4907    9.88472  104.26750    24.3989 3.8228e+00     24.043     1.0614 0.0000e+00
     23.000     8.8189    31.4901    9.88982  104.32126    24.3984 4.3594e+00     23.258     0.9755 0.0000e+00
     22.000     8.8196    31.4907    9.88944  104.31578    24.3989 5.0033e+00     22.157     1.0337 0.0000e+00
     21.000     8.8193    31.4898    9.89786  104.40762    24.3982 5.8125e+00     21.182     1.0444 0.0000e+00
     20.000     8.8192    31.4903    9.90220  104.45543    24.3985 6.7739e+00     20.259     0.9366 0.0000e+00
     19.000     8.8188    31.4898    9.90493  104.48174    24.3982 7.9923e+00     19.133     1.0391 0.0000e+00
     18.000     8.8191    31.4903    9.90781  104.51013    24.3986 9.4703e+00     18.180     0.9768 0.0000e+00
     17.000     8.8187    31.4901    9.90674  104.49824    24.3985 1.1288e+01     17.141     1.0691 0.0000e+00
     16.000     8.8192    31.4900    9.90746  104.50532    24.3984 1.3516e+01     16.167     0.9859 0.0000e+00
     15.000     8.8186    31.4894    9.90368  104.46505    24.3979 1.6282e+01     15.140     1.0223 0.0000e+00
     14.000     8.8190    31.4898    9.89937  104.41932    24.3982 1.9642e+01     14.144     0.9871 0.0000e+00
     13.000     8.8207    31.4900    9.90384  104.46641    24.3983 2.3733e+01     13.107     1.0311 0.0000e+00
     12.000     8.8202    31.4890    9.90470  104.47928    24.3974 2.9022e+01     12.132     0.9710 0.0000e+00
     11.000     8.8187    31.4888    9.90467  104.48337    24.3972 3.5947e+01     11.085     0.9878 0.0000e+00
     10.000     8.8184    31.4907    9.91095  104.55227    24.3990 4.4417e+01     10.143     0.9705 0.0000e+00
      9.000     8.8183    31.4896    9.91575  104.60575    24.3981 5.4511e+01      9.073     0.9471 0.0000e+00
      8.000     8.8178    31.4898    9.89914  104.42906    24.3984 6.7301e+01      8.118     0.9840 0.0000e+00
      7.000     8.8180    31.4905    9.69914  102.33141    24.3989 8.2878e+01      7.079     1.0761 0.0000e+00
      6.000     8.8176    31.4897   10.27339  101.69162    24.3983 1.0184e+02      6.162     1.0104 0.0000e+00
      5.000     8.8188    31.4902   11.18878  101.60219    24.3988 1.2734e+02      5.134     1.0222 0.0000e+00
      4.000     8.8217    31.4892 -9.990e-29 -9.990e-29    24.3978 1.5896e+02      4.203     1.0211 0.0000e+00
      3.000     8.8230    31.4869 -9.990e-29 -9.990e-29    24.3956 1.9980e+02      3.307     0.9324 0.0000e+00
      2.000     8.8241    31.4867 -9.990e-29 -9.990e-29    24.3952 2.6199e+02      2.514     0.8675 0.0000e+00
      1.000     8.8242    31.4863 -9.990e-29 -9.990e-29    24.3948 6.1376e+02      1.791     0.7451 0.0000e+00
