* Sea-Bird SBE19plus Data File:
* FileName = C:\data\otf\2007\ctd-07142.hex
* Software Version 1.55
* Temperature SN =  5061
* Conductivity SN =  5061
* System UpLoad Time = Aug 15 2007 17:35:18
* ds
* SeacatPlus V 1.6a  SERIAL NO. 5061    15 Aug 2007  15:31:53
* vbatt = 10.9, vlith =  8.7, ioper =  61.6 ma, ipump =  57.5 ma, 
* iext01 =  95.2 ma
* iext23 =  58.1 ma
* 
* status = not logging
* number of scans to average = 1
* samples = 153039, free = 288466, casts = 154
* mode = profile, minimum cond freq = 3000, pump delay = 60 sec
* autorun = no, ignore magnetic switch = no
* battery type = alkaline, battery cutoff =  7.3 volts
* pressure sensor = strain gauge, range = 870.0
* SBE 38 = no, Gas Tension Device = no
* Ext Volt 0 = yes, Ext Volt 1 = yes, Ext Volt 2 = yes, Ext Volt 3 = yes
* echo commands = yes
* output format = raw HEX
* S>
* 
* SeacatPlus V 1.6a  SERIAL NO. 5061    15 Aug 2007  15:32:18
* temperature:  05-oct-06
*     TA0 = 1.254184e-03
*     TA1 = 2.596730e-04
*     TA2 = 5.165612e-07
*     TA3 = 1.318931e-07
*     TOFFSET = 0.000000e+00
* conductivity:  05-oct-06
*     G = -9.978144e-01
*     H = 1.555200e-01
*     I = -4.839108e-04
*     J = 6.121100e-05
*     CF0 = 2.539936e+03
*     CPCOR = -9.570000e-08
*     CTCOR = 3.250000e-06
*     CSLOPE = 1.000000e+00
* pressure S/N = 2362539, range = 870 psia:  24-aug-06
*     PA0 = 2.171091e-01
*     PA1 = 2.647085e-03
*     PA2 = 1.419397e-11
*     PTCA0 = 5.242437e+05
*     PTCA1 = 7.545345e+00
*     PTCA2 = -1.835354e-01
*     PTCB0 = 2.537125e+01
*     PTCB1 = -1.750000e-03
*     PTCB2 = 0.000000e+00
*     PTEMPA0 = -5.753989e+01
*     PTEMPA1 = 5.235813e+01
*     PTEMPA2 = -4.015521e-02
*     POFFSET = 0.000000e+00
* volt 0: offset = -4.682842e-02, slope = 1.249147e+00
* volt 1: offset = -4.695158e-02, slope = 1.248145e+00
* volt 2: offset = -4.685263e-02, slope = 1.248783e+00
* volt 3: offset = -4.690316e-02, slope = 1.249508e+00
*     EXTFREQSF = 1.000002e+00
* dh
* cast 142 28 Jul 2007 11:10:43 samples 139168 to 140058, avg = 1, stop = mag switch
* S> 
# nquan = 10
# nvalues = 125                         
# units = specified
# name 0 = depSM: Depth [salt water, m]
# name 1 = tv290C: Temperature [ITS-90, deg C]
# name 2 = sal00: Salinity [PSU]
# name 3 = sbeox0Mg/L: Oxygen, SBE 43 [mg/l]
# name 4 = sbeox0PS: Oxygen, SBE 43 [% saturation]
# name 5 = sigma-t00: Density [sigma-t, Kg/m^3 ]
# name 6 = par: PAR/Irradiance, Biospherical/Licor
# name 7 = prdM: Pressure, Strain Gauge [db]
# name 8 = flECO-AFL: Fluorescence, Wetlab ECO-AFL/FL [mg/m^3]
# name 9 = flag: flag
# span 0 =      1.000,     65.000       
# span 1 =     8.5154,     8.9910       
# span 2 =    31.4635,    31.6977       
# span 3 =    8.25176,    9.34087       
# span 4 =   87.26354,   98.88914       
# span 5 =    24.3532,    24.6061       
# span 6 = 1.5711e+00, 1.7304e+03       
# span 7 =      1.090,     65.429       
# span 8 =     0.6528,     1.1796       
# span 9 = 0.0000e+00, 0.0000e+00       
# interval = meters: 1                  
# start_time = Jul 28 2007 11:10:43
# bad_flag = -9.990e-29
# sensor 0 = Frequency 0  temperature, 5061, 05-Oct-06
# sensor 1 = Frequency 1  conductivity, 5061, 05-Oct-06, cpcor = -9.5700e-08
# sensor 2 = Pressure Number
# sensor 3 = Extrnl Volt  0  irradiance (PAR), primary, 4751, 08/10/06
# sensor 4 = Extrnl Volt  1  Oxygen, SBE, primary, 1081, 10/24/06
# sensor 5 = Extrnl Volt  2  WET Labs, ECO_AFL
# sensor 6 = Extrnl Volt  3  userpoly 0, 0627, 10/11/06
# datcnv_date = Oct 15 2007 14:49:53, 5.37e
# datcnv_in = I:\bob d\OTF_GEM\2007\ctd-07142.hex I:\Willette\OTF\CTD\5061.con
# datcnv_skipover = 0
# filter_date = Oct 15 2007 15:02:42, 5.37e
# filter_in = I:\Willette\OTF\CTD\2007\CTD Data\ctd-07142.cnv
# filter_low_pass_tc_A = 1.000
# filter_low_pass_tc_B = 0.150
# filter_low_pass_A_vars = prdM
# filter_low_pass_B_vars =
# loopedit_date = Oct 15 2007 15:07:00, 5.37e
# loopedit_in = I:\Willette\OTF\CTD\2007\CTD Data\ctd-07142.cnv
# loopedit_minVelocity = 0.250                                                                                            
# loopedit_surfaceSoak: minDepth = 5.0, maxDepth = 20, useDeckPress = 1                                                   
# loopedit_excl_bad_scans = yes
# alignctd_date = Oct 15 2007 15:14:24, 5.37e
# alignctd_in = I:\Willette\OTF\CTD\2007\CTD Data\ctd-07142.cnv
# alignctd_adv = tv290C 0.500, sbeox0Mg/L 4.000, sbeox0PS 4.000                                                                                                                                                                      
# binavg_date = Oct 15 2007 15:18:53, 5.37e
# binavg_in = I:\Willette\OTF\CTD\2007\CTD Data\ctd-07142.cnv
# binavg_bintype = meters
# binavg_binsize = 1
# binavg_excl_bad_scans = yes
# binavg_skipover = 0
# binavg_surface_bin = no, min = 0.000, max = 0.000, value = 0.000
# file_type = ascii
*END*
      5.000     8.9722    31.6522    8.25176   87.26354    24.4997 4.1721e+02      4.975     0.7749 0.0000e+00
      6.000     8.9448    31.6448    8.34557   88.20329    24.4988 3.4823e+02      6.087     0.8055 0.0000e+00
      7.000     8.8930    31.6281    8.44607   89.19741    24.4924 2.8610e+02      7.076     0.8072 0.0000e+00
      8.000     8.8657    31.6606    8.63853   91.19142    24.5242 2.3759e+02      8.144     0.8672 0.0000e+00
      9.000     8.8474    31.6224    8.71020   91.92796    24.4960 1.9824e+02      9.224     0.8848 0.0000e+00
     10.000     8.8207    31.6249    8.76162   92.45060    24.5018 1.6585e+02     10.131     0.9608 0.0000e+00
     11.000     8.8119    31.6358    8.79556   92.77342    24.5130 1.3838e+02     11.117     1.0571 0.0000e+00
     12.000     8.8058    31.6342    8.78779   92.66702    24.5127 1.1560e+02     12.165     1.0663 0.0000e+00
     13.000     8.8000    31.6283    8.77377   92.48971    24.5090 9.7439e+01     13.172     1.1615 0.0000e+00
     14.000     8.7869    31.6236    8.80848   92.84486    24.5064 8.2831e+01     14.103     1.1796 0.0000e+00
     15.000     8.7690    31.6346    8.82622   93.01609    24.5180 6.8415e+01     15.114     1.1463 0.0000e+00
     16.000     8.7577    31.6397    8.85043   93.24987    24.5239 5.7917e+01     16.198     1.1135 0.0000e+00
     17.000     8.7450    31.6396    8.85782   93.28574    24.5257 4.8755e+01     17.176     1.0983 0.0000e+00
     18.000     8.7400    31.6426    8.86978   93.38755    24.5293 4.1641e+01     18.189     1.1088 0.0000e+00
     19.000     8.7321    31.6413    8.87731   93.44832    24.5292 3.5340e+01     19.169     1.0894 0.0000e+00
     20.000     8.7193    31.6446    8.87501   93.40769    24.5331 3.0084e+01     20.196     1.0315 0.0000e+00
     21.000     8.6990    31.6478    8.89244   93.58415    24.5385 2.5670e+01     21.201     1.0262 0.0000e+00
     22.000     8.6867    31.6553    8.91308   93.79750    24.5466 2.2001e+01     22.172     1.0429 0.0000e+00
     23.000     8.6762    31.6631    8.93038   93.94744    24.5546 1.8776e+01     23.219     1.0177 0.0000e+00
     24.000     8.6688    31.6656    8.95135   94.14276    24.5579 1.6203e+01     24.257     0.9786 0.0000e+00
     25.000     8.6674    31.6652    8.92829   93.89188    24.5582 1.4111e+01     25.251     1.0029 0.0000e+00
     26.000     8.6643    31.6633    8.86922   93.26128    24.5569 1.2240e+01     26.256     0.9660 0.0000e+00
     27.000     8.6463    31.6587    8.87148   93.27069    24.5545 1.0616e+01     27.212     1.0039 0.0000e+00
     28.000     8.6338    31.6729    8.91135   93.68891    24.5686 9.1781e+00     28.177     1.0054 0.0000e+00
     29.000     8.6294    31.6807    8.90815   93.63891    24.5759 7.9544e+00     29.316     1.0126 0.0000e+00
     30.000     8.6248    31.6752    8.91857   93.69327    24.5720 7.0076e+00     30.329     1.0182 0.0000e+00
     31.000     8.6180    31.6756    8.98486   94.37786    24.5734 6.1929e+00     31.239     1.0050 0.0000e+00
     32.000     8.6186    31.6811    9.05498   95.11183    24.5780 5.4809e+00     32.274     0.9857 0.0000e+00
     33.000     8.6027    31.6658    9.10141   95.57551    24.5667 4.9114e+00     33.303     0.9595 0.0000e+00
     34.000     8.5833    31.6703    9.12635   95.81745    24.5740 4.4082e+00     34.315     1.0035 0.0000e+00
     35.000     8.5805    31.6753    9.13657   95.89527    24.5792 3.9841e+00     35.342     0.9833 0.0000e+00
     36.000     8.5735    31.6735    9.14463   95.97902    24.5780 3.6294e+00     36.309     0.9544 0.0000e+00
     37.000     8.5616    31.6791    9.15393   96.07392    24.5845 3.3169e+00     37.421     0.9467 0.0000e+00
     38.000     8.5458    31.6787    9.16481   96.18775    24.5857 3.0662e+00     38.328     0.9498 0.0000e+00
     39.000     8.5424    31.6878    9.17312   96.26914    24.5945 2.8315e+00     39.351     0.9392 0.0000e+00
     40.000     8.5414    31.6878    9.17870   96.33393    24.5948 2.6387e+00     40.420     0.9255 0.0000e+00
     41.000     8.5409    31.6881    9.18882   96.44231    24.5951 2.4785e+00     41.416     0.9116 0.0000e+00
     42.000     8.5385    31.6872    9.19557   96.51357    24.5945 2.3407e+00     42.448     0.9480 0.0000e+00
     43.000     8.5379    31.6894    9.20102   96.57284    24.5967 2.2284e+00     43.446     0.9052 0.0000e+00
     44.000     8.5421    31.6894    9.20775   96.62929    24.5962 2.1301e+00     44.425     0.9030 0.0000e+00
     45.000     8.5418    31.6872    9.21183   96.66826    24.5942 2.0460e+00     45.447     0.8907 0.0000e+00
     46.000     8.5430    31.6883    9.21381   96.68457    24.5951 1.9742e+00     46.440     0.8916 0.0000e+00
     47.000     8.5424    31.6862    9.21234   96.67086    24.5931 1.9114e+00     47.432     0.9037 0.0000e+00
     48.000     8.5357    31.6867    9.21359   96.67802    24.5943 1.8591e+00     48.434     0.8982 0.0000e+00
     49.000     8.5338    31.6890    9.21643   96.69933    24.5967 1.8132e+00     49.448     0.8970 0.0000e+00
     50.000     8.5320    31.6904    9.21967   96.72281    24.5981 1.7744e+00     50.486     0.9053 0.0000e+00
     51.000     8.5334    31.6914    9.22427   96.76302    24.5989 1.7417e+00     51.479     0.8883 0.0000e+00
     52.000     8.5280    31.6889    9.22704   96.79119    24.5970 1.7124e+00     52.479     0.8876 0.0000e+00
     53.000     8.5240    31.6922    9.22439   96.76425    24.6005 1.6890e+00     53.523     0.9087 0.0000e+00
     54.000     8.5182    31.6918    9.22743   96.79673    24.6009 1.6682e+00     54.506     0.8959 0.0000e+00
     55.000     8.5156    31.6958    9.23258   96.84891    24.6048 1.6501e+00     55.487     0.8816 0.0000e+00
     56.000     8.5160    31.6967    9.23278   96.85086    24.6056 1.6354e+00     56.529     0.8869 0.0000e+00
     57.000     8.5164    31.6963    9.23123   96.83388    24.6052 1.6226e+00     57.551     0.8745 0.0000e+00
     58.000     8.5160    31.6961    9.23487   96.87246    24.6050 1.6113e+00     58.570     0.8878 0.0000e+00
     59.000     8.5155    31.6963    9.23622   96.88676    24.6053 1.6026e+00     59.571     0.8991 0.0000e+00
     60.000     8.5155    31.6963    9.24088   96.93576    24.6053 1.5946e+00     60.538     0.8985 0.0000e+00
     61.000     8.5154    31.6959    9.24490   96.97854    24.6050 1.5876e+00     61.562     0.8992 0.0000e+00
     62.000     8.5155    31.6963    9.25040   97.03655    24.6053 1.5821e+00     62.573     0.8631 0.0000e+00
     63.000     8.5155    31.6963    9.25104   97.04583    24.6054 1.5768e+00     63.542     0.8999 0.0000e+00
     64.000     8.5156    31.6967    9.25305   97.07112    24.6056 1.5727e+00     64.469     0.8943 0.0000e+00
     65.000     8.5181    31.6977    9.24363   96.96889    24.6061 1.5761e+00     65.429     0.9057 0.0000e+00
     64.000     8.5186    31.6959    9.24364   96.97267    24.6044 1.5711e+00     64.567     0.9453 0.0000e+00
     63.000     8.5188    31.6967    9.24511   96.98586    24.6051 1.5762e+00     63.610     0.9137 0.0000e+00
     62.000     8.5190    31.6967    9.24309   96.96558    24.6051 1.5808e+00     62.578     0.9670 0.0000e+00
     61.000     8.5183    31.6959    9.24332   96.96601    24.6045 1.5864e+00     61.577     1.0121 0.0000e+00
     60.000     8.5186    31.6965    9.24902   97.02783    24.6050 1.5929e+00     60.592     0.9835 0.0000e+00
     59.000     8.5176    31.6965    9.25007   97.03676    24.6052 1.6004e+00     59.566     0.9836 0.0000e+00
     58.000     8.5187    31.6964    9.24783   97.01352    24.6049 1.6093e+00     58.545     0.9773 0.0000e+00
     57.000     8.5176    31.6956    9.24566   96.99019    24.6044 1.6203e+00     57.553     0.9872 0.0000e+00
     56.000     8.5179    31.6961    9.24350   96.96962    24.6048 1.6328e+00     56.551     0.9375 0.0000e+00
     55.000     8.5175    31.6962    9.25261   97.06489    24.6049 1.6474e+00     55.516     0.9319 0.0000e+00
     54.000     8.5187    31.6957    9.25090   97.04496    24.6044 1.6644e+00     54.507     0.9519 0.0000e+00
     53.000     8.5187    31.6948    9.25176   97.05465    24.6036 1.6844e+00     53.519     0.9538 0.0000e+00
     52.000     8.5177    31.6951    9.25265   97.06234    24.6040 1.7083e+00     52.502     0.9320 0.0000e+00
     51.000     8.5182    31.6949    9.25752   97.11384    24.6038 1.7361e+00     51.492     0.9269 0.0000e+00
     50.000     8.5172    31.6951    9.26056   97.14877    24.6041 1.7693e+00     50.467     0.9609 0.0000e+00
     49.000     8.5174    31.6956    9.25796   97.12933    24.6044 1.8074e+00     49.493     0.9183 0.0000e+00
     48.000     8.5188    31.6955    9.25792   97.12963    24.6043 1.8535e+00     48.458     0.9475 0.0000e+00
     47.000     8.5231    31.6944    9.24708   97.02298    24.6028 1.9055e+00     47.440     0.9560 0.0000e+00
     46.000     8.5234    31.6935    9.24810   97.03589    24.6020 1.9675e+00     46.458     0.9351 0.0000e+00
     45.000     8.5271    31.6926    9.25185   97.07440    24.6008 2.0394e+00     45.412     0.9758 0.0000e+00
     44.000     8.5279    31.6918    9.26144   97.17713    24.5999 2.1256e+00     44.428     0.9557 0.0000e+00
     43.000     8.5278    31.6919    9.26085   97.16854    24.6001 2.2259e+00     43.400     0.9569 0.0000e+00
     42.000     8.5287    31.6910    9.26550   97.22258    24.5992 2.3411e+00     42.407     0.9400 0.0000e+00
     41.000     8.5275    31.6910    9.27171   97.30763    24.5993 2.4788e+00     41.419     0.9353 0.0000e+00
     40.000     8.5314    31.6918    9.26378   97.24037    24.5997 2.6395e+00     40.340     0.9724 0.0000e+00
     39.000     8.5418    31.6892    9.26148   97.22658    24.5962 2.8284e+00     39.404     1.0380 0.0000e+00
     38.000     8.5483    31.6852    9.26569   97.28896    24.5919 3.0507e+00     38.374     0.9493 0.0000e+00
     37.000     8.5563    31.6838    9.27183   97.36977    24.5898 3.3106e+00     37.317     0.9471 0.0000e+00
     36.000     8.5642    31.6802    9.27581   97.42089    24.5857 3.6115e+00     36.369     0.9553 0.0000e+00
     35.000     8.5717    31.6770    9.27308   97.39388    24.5820 3.9657e+00     35.335     0.9571 0.0000e+00
     34.000     8.5759    31.6745    9.27630   97.44584    24.5793 4.3825e+00     34.294     0.9593 0.0000e+00
     33.000     8.5789    31.6752    9.27865   97.47431    24.5797 4.8713e+00     33.317     0.9724 0.0000e+00
     32.000     8.5854    31.6718    9.28413   97.54049    24.5759 5.4517e+00     32.311     0.9640 0.0000e+00
     31.000     8.5875    31.6702    9.28605   97.58414    24.5742 6.1271e+00     31.285     0.9490 0.0000e+00
     30.000     8.5927    31.6708    9.27808   97.53739    24.5743 6.9005e+00     30.253     0.9546 0.0000e+00
     29.000     8.6036    31.6660    9.28444   97.62522    24.5690 7.8563e+00     29.317     0.9664 0.0000e+00
     28.000     8.6246    31.6597    9.29085   97.70019    24.5612 8.9454e+00     28.209     0.9929 0.0000e+00
     27.000     8.6340    31.6519    9.28697   97.66339    24.5531 1.0212e+01     27.261     0.9695 0.0000e+00
     26.000     8.6369    31.6500    9.28570   97.65457    24.5511 1.1776e+01     26.265     1.0212 0.0000e+00
     25.000     8.6394    31.6487    9.29488   97.75550    24.5497 1.3580e+01     25.206     0.9716 0.0000e+00
     24.000     8.6415    31.6483    9.29485   97.77760    24.5490 1.5642e+01     24.250     0.9698 0.0000e+00
     23.000     8.6435    31.6472    9.29379   97.79130    24.5479 1.8169e+01     23.221     0.9869 0.0000e+00
     22.000     8.6557    31.6456    9.29395   97.81788    24.5454 2.1061e+01     22.198     0.9663 0.0000e+00
     21.000     8.6672    31.6381    9.29304   97.81819    24.5375 2.4530e+01     21.199     0.9706 0.0000e+00
     20.000     8.6813    31.6334    9.29061   97.82878    24.5318 2.8796e+01     20.180     0.9772 0.0000e+00
     19.000     8.6859    31.6308    9.29528   97.89422    24.5290 3.3938e+01     19.185     1.0063 0.0000e+00
     18.000     8.7031    31.6252    9.30415   97.99557    24.5223 3.9856e+01     18.141     1.0978 0.0000e+00
     17.000     8.7119    31.6195    9.31177   98.09522    24.5162 4.6929e+01     17.169     1.0626 0.0000e+00
     16.000     8.7158    31.6163    9.31549   98.14657    24.5128 5.5531e+01     16.137     1.1601 0.0000e+00
     15.000     8.7238    31.6149    9.31657   98.16345    24.5110 6.5760e+01     15.172     1.0816 0.0000e+00
     14.000     8.7331    31.6085    9.31517   98.18454    24.5043 7.8762e+01     14.060     1.1154 0.0000e+00
     13.000     8.7344    31.6078    9.31544   98.19772    24.5035 9.2628e+01     13.148     1.1431 0.0000e+00
     12.000     8.7469    31.6060    9.31784   98.25977    24.5009 1.1181e+02     12.133     1.1158 0.0000e+00
     11.000     8.7583    31.5971    9.32031   98.31718    24.4915 1.3189e+02     11.090     1.0845 0.0000e+00
     10.000     8.7741    31.5952    9.33151   98.45852    24.4885 1.5907e+02     10.094     1.0455 0.0000e+00
      9.000     8.7904    31.5852    9.33674   98.52494    24.4779 1.9091e+02      9.124     1.0239 0.0000e+00
      8.000     8.8061    31.5769    9.32818   98.45475    24.4689 2.2817e+02      8.063     0.9394 0.0000e+00
      7.000     8.8127    31.5718    9.33360   98.54694    24.4635 2.7713e+02      7.088     0.8795 0.0000e+00
      6.000     8.8226    31.5679    9.33526   98.62805    24.4594 3.3882e+02      6.052     0.7763 0.0000e+00
      5.000     8.8419    31.5591    9.33895   98.71535    24.4501 4.1543e+02      5.060     0.7566 0.0000e+00
      4.000     8.8782    31.5373    9.33848   98.78498    24.4279 5.1308e+02      4.027     0.7649 0.0000e+00
      3.000     8.9053    31.5191    9.34087   98.88914    24.4093 6.3322e+02      3.048     0.7707 0.0000e+00
      2.000     8.9475    31.4944    9.31051   98.62979    24.3843 8.2987e+02      2.012     0.6867 0.0000e+00
      1.000     8.9910    31.4635    9.15122   96.89257    24.3532 1.7304e+03      1.090     0.6528 0.0000e+00
