* Sea-Bird SBE19plus Data File:
* FileName = C:\data\otf\2007\ctd-07137.hex
* Software Version 1.55
* Temperature SN =  5061
* Conductivity SN =  5061
* System UpLoad Time = Aug 15 2007 17:31:26
* ds
* SeacatPlus V 1.6a  SERIAL NO. 5061    15 Aug 2007  15:31:53
* vbatt = 10.9, vlith =  8.7, ioper =  61.6 ma, ipump =  57.5 ma, 
* iext01 =  95.2 ma
* iext23 =  58.1 ma
* 
* status = not logging
* number of scans to average = 1
* samples = 153039, free = 288466, casts = 154
* mode = profile, minimum cond freq = 3000, pump delay = 60 sec
* autorun = no, ignore magnetic switch = no
* battery type = alkaline, battery cutoff =  7.3 volts
* pressure sensor = strain gauge, range = 870.0
* SBE 38 = no, Gas Tension Device = no
* Ext Volt 0 = yes, Ext Volt 1 = yes, Ext Volt 2 = yes, Ext Volt 3 = yes
* echo commands = yes
* output format = raw HEX
* S>
* 
* SeacatPlus V 1.6a  SERIAL NO. 5061    15 Aug 2007  15:32:18
* temperature:  05-oct-06
*     TA0 = 1.254184e-03
*     TA1 = 2.596730e-04
*     TA2 = 5.165612e-07
*     TA3 = 1.318931e-07
*     TOFFSET = 0.000000e+00
* conductivity:  05-oct-06
*     G = -9.978144e-01
*     H = 1.555200e-01
*     I = -4.839108e-04
*     J = 6.121100e-05
*     CF0 = 2.539936e+03
*     CPCOR = -9.570000e-08
*     CTCOR = 3.250000e-06
*     CSLOPE = 1.000000e+00
* pressure S/N = 2362539, range = 870 psia:  24-aug-06
*     PA0 = 2.171091e-01
*     PA1 = 2.647085e-03
*     PA2 = 1.419397e-11
*     PTCA0 = 5.242437e+05
*     PTCA1 = 7.545345e+00
*     PTCA2 = -1.835354e-01
*     PTCB0 = 2.537125e+01
*     PTCB1 = -1.750000e-03
*     PTCB2 = 0.000000e+00
*     PTEMPA0 = -5.753989e+01
*     PTEMPA1 = 5.235813e+01
*     PTEMPA2 = -4.015521e-02
*     POFFSET = 0.000000e+00
* volt 0: offset = -4.682842e-02, slope = 1.249147e+00
* volt 1: offset = -4.695158e-02, slope = 1.248145e+00
* volt 2: offset = -4.685263e-02, slope = 1.248783e+00
* volt 3: offset = -4.690316e-02, slope = 1.249508e+00
*     EXTFREQSF = 1.000002e+00
* dh
* cast 137 27 Jul 2007 09:59:00 samples 134933 to 135769, avg = 1, stop = mag switch
* S> 
# nquan = 10
# nvalues = 111                         
# units = specified
# name 0 = depSM: Depth [salt water, m]
# name 1 = tv290C: Temperature [ITS-90, deg C]
# name 2 = sal00: Salinity [PSU]
# name 3 = sbeox0Mg/L: Oxygen, SBE 43 [mg/l]
# name 4 = sbeox0PS: Oxygen, SBE 43 [% saturation]
# name 5 = sigma-t00: Density [sigma-t, Kg/m^3 ]
# name 6 = par: PAR/Irradiance, Biospherical/Licor
# name 7 = prdM: Pressure, Strain Gauge [db]
# name 8 = flECO-AFL: Fluorescence, Wetlab ECO-AFL/FL [mg/m^3]
# name 9 = flag: flag
# span 0 =      1.000,     58.000       
# span 1 =     8.4126,    11.9016       
# span 2 =    26.1779,    31.6768       
# span 3 =    8.36491,    9.41196       
# span 4 =   90.45223,  100.70839       
# span 5 =    19.7755,    24.5934       
# span 6 = 1.5510e+00, 3.1128e+02       
# span 7 =      1.062,     58.363       
# span 8 =     0.8186,     1.1139       
# span 9 = 0.0000e+00, 0.0000e+00       
# interval = meters: 1                  
# start_time = Jul 27 2007 09:59:00
# bad_flag = -9.990e-29
# sensor 0 = Frequency 0  temperature, 5061, 05-Oct-06
# sensor 1 = Frequency 1  conductivity, 5061, 05-Oct-06, cpcor = -9.5700e-08
# sensor 2 = Pressure Number
# sensor 3 = Extrnl Volt  0  irradiance (PAR), primary, 4751, 08/10/06
# sensor 4 = Extrnl Volt  1  Oxygen, SBE, primary, 1081, 10/24/06
# sensor 5 = Extrnl Volt  2  WET Labs, ECO_AFL
# sensor 6 = Extrnl Volt  3  userpoly 0, 0627, 10/11/06
# datcnv_date = Oct 15 2007 14:49:53, 5.37e
# datcnv_in = I:\bob d\OTF_GEM\2007\ctd-07137.hex I:\Willette\OTF\CTD\5061.con
# datcnv_skipover = 0
# filter_date = Oct 15 2007 15:02:41, 5.37e
# filter_in = I:\Willette\OTF\CTD\2007\CTD Data\ctd-07137.cnv
# filter_low_pass_tc_A = 1.000
# filter_low_pass_tc_B = 0.150
# filter_low_pass_A_vars = prdM
# filter_low_pass_B_vars =
# loopedit_date = Oct 15 2007 15:06:59, 5.37e
# loopedit_in = I:\Willette\OTF\CTD\2007\CTD Data\ctd-07137.cnv
# loopedit_minVelocity = 0.250                                                                                            
# loopedit_surfaceSoak: minDepth = 5.0, maxDepth = 20, useDeckPress = 1                                                   
# loopedit_excl_bad_scans = yes
# alignctd_date = Oct 15 2007 15:14:24, 5.37e
# alignctd_in = I:\Willette\OTF\CTD\2007\CTD Data\ctd-07137.cnv
# alignctd_adv = tv290C 0.500, sbeox0Mg/L 4.000, sbeox0PS 4.000                                                                                                                                                                      
# binavg_date = Oct 15 2007 15:18:52, 5.37e
# binavg_in = I:\Willette\OTF\CTD\2007\CTD Data\ctd-07137.cnv
# binavg_bintype = meters
# binavg_binsize = 1
# binavg_excl_bad_scans = yes
# binavg_skipover = 0
# binavg_surface_bin = no, min = 0.000, max = 0.000, value = 0.000
# file_type = ascii
*END*
      5.000    11.0438    28.0961    8.36491   90.67047    21.3919 8.1033e+01      5.235     1.0787 0.0000e+00
      6.000    10.9998    28.2205    8.43731   90.87389    21.4997 6.2161e+01      6.276     1.1012 0.0000e+00
      7.000    10.9805    28.2842    8.45089   90.81485    21.5522 4.9296e+01      7.024     1.1139 0.0000e+00
      8.000    10.9616    28.3540    8.47189   90.87279    21.6108 3.7942e+01      7.921     1.1102 0.0000e+00
      9.000    10.7999    28.4965    8.57944   91.90783    21.7271 2.9473e+01      9.071     1.0515 0.0000e+00
     10.000    10.3076    29.2881    8.54986   91.56635    22.4082 2.3304e+01     10.077     1.0044 0.0000e+00
     11.000    10.0200    29.8390    8.45256   90.45223    22.9030 1.8800e+01     11.109     0.9995 0.0000e+00
     12.000     9.8531    30.2020    8.54830   91.44380    23.2188 1.5546e+01     11.970     0.9852 0.0000e+00
     13.000     9.7924    30.4404    8.71401   93.13634    23.4261 1.2570e+01     13.238     1.0004 0.0000e+00
     14.000     9.7285    30.4981    8.73485   93.09534    23.4768 1.0601e+01     14.258     0.9902 0.0000e+00
     15.000     9.6920    30.5766    8.78414   93.28865    23.5464 8.9388e+00     15.191     1.0104 0.0000e+00
     16.000     9.6500    30.6533    8.82794   93.58927    23.6116 7.6257e+00     16.090     1.0227 0.0000e+00
     17.000     9.5866    30.7600    8.88041   94.01213    23.7039 6.4969e+00     17.203     1.0104 0.0000e+00
     18.000     9.3729    30.9130    8.91345   94.26607    23.8405 5.6521e+00     18.259     0.9875 0.0000e+00
     19.000     9.1990    31.1197    8.86268   93.65882    24.0368 4.9271e+00     19.194     0.8981 0.0000e+00
     20.000     9.0996    31.2244    8.83604   93.32562    24.1394 4.3264e+00     20.146     0.8922 0.0000e+00
     21.000     9.0372    31.2848    8.88110   93.77334    24.1989 3.8347e+00     21.080     0.8952 0.0000e+00
     22.000     8.9689    31.3588    8.92354   94.02454    24.2684 3.4125e+00     22.155     0.8613 0.0000e+00
     23.000     8.9202    31.3856    8.89034   93.53580    24.2984 3.1009e+00     23.304     0.8683 0.0000e+00
     24.000     8.8946    31.3933    8.93507   93.98386    24.3090 2.8538e+00     24.199     0.8497 0.0000e+00
     25.000     8.8395    31.4199    8.96626   94.21861    24.3344 2.6325e+00     25.190     0.8476 0.0000e+00
     26.000     8.7271    31.4868    9.00130   94.56262    24.4035 2.4491e+00     26.321     0.8319 0.0000e+00
     27.000     8.6890    31.5211    8.99334   94.47828    24.4395 2.3037e+00     27.241     0.8342 0.0000e+00
     28.000     8.6599    31.5491    8.94418   93.93049    24.4657 2.1663e+00     28.284     0.8413 0.0000e+00
     29.000     8.6142    31.5563    8.92868   93.72993    24.4774 2.0633e+00     29.225     0.8483 0.0000e+00
     30.000     8.6079    31.5925    8.97524   94.17836    24.5100 1.9712e+00     30.162     0.8422 0.0000e+00
     31.000     8.6009    31.5956    8.98369   94.26822    24.5127 1.8967e+00     31.323     0.8381 0.0000e+00
     32.000     8.5813    31.5959    8.85944   92.95992    24.5156 1.8408e+00     32.400     0.8285 0.0000e+00
     33.000     8.5544    31.5950    8.85216   92.85457    24.5176 1.7948e+00     33.239     0.8727 0.0000e+00
     34.000     8.5407    31.6396    8.88670   93.18828    24.5566 1.7501e+00     34.176     0.8588 0.0000e+00
     35.000     8.5483    31.6351    8.93635   93.75555    24.5527 1.7150e+00     35.369     0.8422 0.0000e+00
     36.000     8.5293    31.6239    8.82621   92.54229    24.5449 1.6861e+00     36.413     0.8406 0.0000e+00
     37.000     8.5152    31.6273    8.82364   92.51158    24.5506 1.6643e+00     37.255     0.8334 0.0000e+00
     38.000     8.5296    31.6768    8.88390   93.12970    24.5888 1.6434e+00     38.406     0.8377 0.0000e+00
     39.000     8.5114    31.6178    8.94855   93.75081    24.5426 1.6301e+00     39.463     0.8317 0.0000e+00
     40.000     8.5114    31.6315    9.05825   94.89887    24.5553 1.6159e+00     40.287     0.8440 0.0000e+00
     41.000     8.5086    31.6235    9.16967   96.06411    24.5484 1.6040e+00     41.423     0.8458 0.0000e+00
     42.000     8.4831    31.6107    9.22392   96.63129    24.5415 1.5949e+00     42.379     0.8462 0.0000e+00
     43.000     8.4806    31.6212    9.25423   96.94353    24.5516 1.5870e+00     43.378     0.8451 0.0000e+00
     44.000     8.4795    31.6199    9.27943   97.17826    24.5506 1.5813e+00     44.501     0.8367 0.0000e+00
     45.000     8.4794    31.6213    9.29182   97.30680    24.5520 1.5759e+00     45.322     0.8590 0.0000e+00
     46.000     8.4748    31.6208    9.30549   97.42766    24.5517 1.5665e+00     46.391     0.8663 0.0000e+00
     47.000     8.4583    31.6301    9.31877   97.58216    24.5614 1.5633e+00     47.495     0.8500 0.0000e+00
     48.000     8.4515    31.6326    9.33926   97.79044    24.5639 1.5637e+00     48.478     0.8453 0.0000e+00
     49.000     8.4502    31.6423    9.34951   97.87337    24.5734 1.5616e+00     49.503     0.8562 0.0000e+00
     50.000     8.4557    31.6343    9.35681   97.92722    24.5655 1.5596e+00     50.526     0.8629 0.0000e+00
     51.000     8.4531    31.6363    9.36173   97.97963    24.5676 1.5576e+00     51.425     0.8530 0.0000e+00
     52.000     8.4379    31.6385    9.36382   97.99322    24.5703 1.5559e+00     52.518     0.8431 0.0000e+00
     53.000     8.4266    31.6520    9.37234   98.07437    24.5836 1.5551e+00     53.555     0.8538 0.0000e+00
     54.000     8.4275    31.6521    9.37157   98.06006    24.5837 1.5540e+00     54.466     0.8679 0.0000e+00
     55.000     8.4233    31.6533    9.37504   98.09218    24.5850 1.5529e+00     55.530     0.8577 0.0000e+00
     56.000     8.4186    31.6546    9.38118   98.15482    24.5866 1.5527e+00     56.493     0.8497 0.0000e+00
     57.000     8.4155    31.6584    9.37020   98.03893    24.5902 1.5518e+00     57.449     0.8477 0.0000e+00
     58.000     8.4126    31.6617    9.37785   98.12186    24.5934 1.5510e+00     58.363     0.8506 0.0000e+00
     57.000     8.4153    31.6602    9.38340   98.18675    24.5919 1.5514e+00     57.392     0.9163 0.0000e+00
     56.000     8.4158    31.6606    9.38597   98.21543    24.5920 1.5514e+00     56.436     0.9010 0.0000e+00
     55.000     8.4155    31.6599    9.38806   98.23346    24.5916 1.5526e+00     55.590     0.9261 0.0000e+00
     54.000     8.4176    31.6591    9.38964   98.25236    24.5908 1.5532e+00     54.381     0.9514 0.0000e+00
     53.000     8.4182    31.6578    9.38768   98.23376    24.5895 1.5550e+00     53.552     0.8853 0.0000e+00
     52.000     8.4161    31.6579    9.38782   98.25173    24.5898 1.5555e+00     52.558     0.9189 0.0000e+00
     51.000     8.4174    31.6585    9.38788   98.28795    24.5903 1.5569e+00     51.422     0.9320 0.0000e+00
     50.000     8.4188    31.6575    9.38285   98.25198    24.5893 1.5586e+00     50.519     0.9301 0.0000e+00
     49.000     8.4299    31.6551    9.37982   98.23561    24.5866 1.5602e+00     49.497     0.9312 0.0000e+00
     48.000     8.4489    31.6420    9.38136   98.26265    24.5733 1.5631e+00     48.355     0.9199 0.0000e+00
     47.000     8.4568    31.6362    9.38958   98.36129    24.5676 1.5660e+00     47.543     0.9368 0.0000e+00
     46.000     8.4656    31.6283    9.38692   98.33709    24.5597 1.5694e+00     46.450     0.9341 0.0000e+00
     45.000     8.4718    31.6255    9.39432   98.41641    24.5568 1.5736e+00     45.414     0.9255 0.0000e+00
     44.000     8.4790    31.6196    9.39354   98.41000    24.5508 1.5794e+00     44.453     0.8904 0.0000e+00
     43.000     8.4797    31.6174    9.39288   98.41334    24.5489 1.5865e+00     43.452     0.9081 0.0000e+00
     42.000     8.4809    31.6172    9.38823   98.38279    24.5486 1.5919e+00     42.354     0.8979 0.0000e+00
     41.000     8.4826    31.6167    9.38914   98.38526    24.5480 1.6027e+00     41.479     0.8916 0.0000e+00
     40.000     8.4948    31.6116    9.39212   98.41339    24.5425 1.6144e+00     40.314     0.9358 0.0000e+00
     39.000     8.4944    31.6067    9.39988   98.49796    24.5379 1.6243e+00     39.440     0.8890 0.0000e+00
     38.000     8.4909    31.6108    9.39986   98.50611    24.5420 1.6433e+00     38.395     0.9020 0.0000e+00
     37.000     8.4922    31.6100    9.40099   98.52066    24.5411 1.6627e+00     37.454     0.8794 0.0000e+00
     36.000     8.4959    31.6090    9.39941   98.51562    24.5401 1.6869e+00     36.347     0.8686 0.0000e+00
     35.000     8.5010    31.6051    9.40062   98.58455    24.5361 1.7170e+00     35.300     0.8714 0.0000e+00
     34.000     8.5008    31.6043    9.39132   98.51816    24.5355 1.7529e+00     34.313     0.8689 0.0000e+00
     33.000     8.5267    31.5953    9.38092   98.42336    24.5260 1.7959e+00     33.365     0.8744 0.0000e+00
     32.000     8.5503    31.5758    9.38933   98.47155    24.5066 1.8456e+00     32.250     0.8529 0.0000e+00
     31.000     8.5639    31.5651    9.39583   98.54771    24.4958 1.9072e+00     31.416     0.8361 0.0000e+00
     30.000     8.5378    31.5731    9.39534   98.60110    24.5044 1.9907e+00     30.237     0.8705 0.0000e+00
     29.000     8.5541    31.5733    9.40463   98.73864    24.5040 2.0852e+00     29.316     0.8469 0.0000e+00
     28.000     8.5849    31.5527    9.40406   98.89957    24.4833 2.1887e+00     28.196     0.8647 0.0000e+00
     27.000     8.6276    31.5361    9.40139   98.89587    24.4658 2.3345e+00     27.309     0.8411 0.0000e+00
     26.000     8.6988    31.4827    9.40589   99.03226    24.4117 2.5109e+00     26.240     0.8273 0.0000e+00
     25.000     8.7454    31.4510    9.40451   99.01839    24.3795 2.7074e+00     25.271     0.8186 0.0000e+00
     24.000     8.7481    31.4459    9.41196   99.20277    24.3745 2.9654e+00     24.197     0.8565 0.0000e+00
     23.000     8.7937    31.4262    9.40903   99.24129    24.3541 3.2399e+00     23.201     0.8378 0.0000e+00
     22.000     8.8290    31.3990    9.40328   99.20251    24.3267 3.6057e+00     22.235     0.8371 0.0000e+00
     21.000     8.8587    31.3730    9.40391   99.27456    24.3009 4.0339e+00     21.154     0.8329 0.0000e+00
     20.000     8.8730    31.3674    9.40295   99.42506    24.2952 4.5352e+00     20.228     0.8311 0.0000e+00
     19.000     8.9554    31.3224    9.40403   99.67233    24.2497 5.1897e+00     19.166     0.8311 0.0000e+00
     18.000     9.0586    31.2421    9.40332  100.10942    24.1712 5.8725e+00     18.145     0.8349 0.0000e+00
     17.000     9.2850    31.0732    9.40351  100.38163    24.0085 6.8456e+00     17.176     0.8889 0.0000e+00
     16.000     9.5179    30.8176    9.38136  100.28944    23.7722 8.0381e+00     16.180     0.9379 0.0000e+00
     15.000     9.6790    30.5681    9.35224  100.00992    23.5464 9.3895e+00     15.148     0.9806 0.0000e+00
     14.000     9.7033    30.5246    9.34429   99.94111    23.5073 1.1025e+01     14.126     0.9768 0.0000e+00
     13.000     9.7302    30.4692    9.33433   99.89037    23.4610 1.3179e+01     13.102     0.9689 0.0000e+00
     12.000     9.7938    30.3230    9.31583   99.79590    23.3370 1.5525e+01     12.084     0.9462 0.0000e+00
     11.000     9.8646    30.1906    9.31050   99.95023    23.2244 1.9057e+01     11.144     0.9256 0.0000e+00
     10.000     9.9752    29.9832    9.31068  100.70839    23.0441 2.2779e+01      9.891     0.8839 0.0000e+00
      9.000    10.3411    29.4397    9.25544  100.29370    22.5783 2.8055e+01      9.073     0.9037 0.0000e+00
      8.000    10.7891    28.6558    9.20143   99.75818    21.8940 3.6161e+01      8.012     0.8851 0.0000e+00
      7.000    10.9294    28.3666    9.18365   99.58718    21.6334 4.4691e+01      7.098     0.9935 0.0000e+00
      6.000    10.9694    28.2807    9.15164   99.31509    21.5546 5.7681e+01      5.913     1.0634 0.0000e+00
      5.000    10.9996    28.2299    9.15465   99.33043    21.5131 7.1336e+01      5.125     1.0531 0.0000e+00
      4.000    11.0973    28.0081    9.16864   99.84736    21.3259 8.7236e+01      4.016     1.0760 0.0000e+00
      3.000    11.1918    27.8038    9.12400   99.61026    21.1527 1.1324e+02      2.984     1.0515 0.0000e+00
      2.000    11.5630    26.9992    9.01366   98.36573    20.4823 1.5203e+02      2.093     0.9433 0.0000e+00
      1.000    11.9016    26.1779 -9.990e-29 -9.990e-29    19.7755 3.1128e+02      1.062     0.8453 0.0000e+00
