* Sea-Bird SBE19plus Data File:
* FileName = C:\data\otf\2007\ctd-07110.hex
* Software Version 1.55
* Temperature SN =  5061
* Conductivity SN =  5061
* System UpLoad Time = Aug 15 2007 16:39:00
* ds
* SeacatPlus V 1.6a  SERIAL NO. 5061    15 Aug 2007  15:31:53
* vbatt = 10.9, vlith =  8.7, ioper =  61.6 ma, ipump =  57.5 ma, 
* iext01 =  95.2 ma
* iext23 =  58.1 ma
* 
* status = not logging
* number of scans to average = 1
* samples = 153039, free = 288466, casts = 154
* mode = profile, minimum cond freq = 3000, pump delay = 60 sec
* autorun = no, ignore magnetic switch = no
* battery type = alkaline, battery cutoff =  7.3 volts
* pressure sensor = strain gauge, range = 870.0
* SBE 38 = no, Gas Tension Device = no
* Ext Volt 0 = yes, Ext Volt 1 = yes, Ext Volt 2 = yes, Ext Volt 3 = yes
* echo commands = yes
* output format = raw HEX
* S>
* 
* SeacatPlus V 1.6a  SERIAL NO. 5061    15 Aug 2007  15:32:18
* temperature:  05-oct-06
*     TA0 = 1.254184e-03
*     TA1 = 2.596730e-04
*     TA2 = 5.165612e-07
*     TA3 = 1.318931e-07
*     TOFFSET = 0.000000e+00
* conductivity:  05-oct-06
*     G = -9.978144e-01
*     H = 1.555200e-01
*     I = -4.839108e-04
*     J = 6.121100e-05
*     CF0 = 2.539936e+03
*     CPCOR = -9.570000e-08
*     CTCOR = 3.250000e-06
*     CSLOPE = 1.000000e+00
* pressure S/N = 2362539, range = 870 psia:  24-aug-06
*     PA0 = 2.171091e-01
*     PA1 = 2.647085e-03
*     PA2 = 1.419397e-11
*     PTCA0 = 5.242437e+05
*     PTCA1 = 7.545345e+00
*     PTCA2 = -1.835354e-01
*     PTCB0 = 2.537125e+01
*     PTCB1 = -1.750000e-03
*     PTCB2 = 0.000000e+00
*     PTEMPA0 = -5.753989e+01
*     PTEMPA1 = 5.235813e+01
*     PTEMPA2 = -4.015521e-02
*     POFFSET = 0.000000e+00
* volt 0: offset = -4.682842e-02, slope = 1.249147e+00
* volt 1: offset = -4.695158e-02, slope = 1.248145e+00
* volt 2: offset = -4.685263e-02, slope = 1.248783e+00
* volt 3: offset = -4.690316e-02, slope = 1.249508e+00
*     EXTFREQSF = 1.000002e+00
* dh
* cast 110 21 Jul 2007 14:26:20 samples 71817 to 72751, avg = 1, stop = mag switch
* S> 
# nquan = 10
# nvalues = 99                          
# units = specified
# name 0 = depSM: Depth [salt water, m]
# name 1 = tv290C: Temperature [ITS-90, deg C]
# name 2 = sal00: Salinity [PSU]
# name 3 = sbeox0Mg/L: Oxygen, SBE 43 [mg/l]
# name 4 = sbeox0PS: Oxygen, SBE 43 [% saturation]
# name 5 = sigma-t00: Density [sigma-t, Kg/m^3 ]
# name 6 = par: PAR/Irradiance, Biospherical/Licor
# name 7 = prdM: Pressure, Strain Gauge [db]
# name 8 = flECO-AFL: Fluorescence, Wetlab ECO-AFL/FL [mg/m^3]
# name 9 = flag: flag
# span 0 =      1.000,     52.000       
# span 1 =     9.3344,    10.6052       
# span 2 =    30.1897,    30.8377       
# span 3 =    8.57423,    9.42553       
# span 4 =   92.40675,  101.66235       
# span 5 =    23.1070,    23.8095       
# span 6 = 1.5423e+00, 1.5475e+03       
# span 7 =      1.070,     52.323       
# span 8 =     0.7913,     1.7208       
# span 9 = 0.0000e+00, 0.0000e+00       
# interval = meters: 1                  
# start_time = Jul 21 2007 14:26:20
# bad_flag = -9.990e-29
# sensor 0 = Frequency 0  temperature, 5061, 05-Oct-06
# sensor 1 = Frequency 1  conductivity, 5061, 05-Oct-06, cpcor = -9.5700e-08
# sensor 2 = Pressure Number
# sensor 3 = Extrnl Volt  0  irradiance (PAR), primary, 4751, 08/10/06
# sensor 4 = Extrnl Volt  1  Oxygen, SBE, primary, 1081, 10/24/06
# sensor 5 = Extrnl Volt  2  WET Labs, ECO_AFL
# sensor 6 = Extrnl Volt  3  userpoly 0, 0627, 10/11/06
# datcnv_date = Oct 15 2007 14:49:48, 5.37e
# datcnv_in = I:\bob d\OTF_GEM\2007\ctd-07110.hex I:\Willette\OTF\CTD\5061.con
# datcnv_skipover = 0
# filter_date = Oct 15 2007 15:02:30, 5.37e
# filter_in = I:\Willette\OTF\CTD\2007\CTD Data\ctd-07110.cnv
# filter_low_pass_tc_A = 1.000
# filter_low_pass_tc_B = 0.150
# filter_low_pass_A_vars = prdM
# filter_low_pass_B_vars =
# loopedit_date = Oct 15 2007 15:06:51, 5.37e
# loopedit_in = I:\Willette\OTF\CTD\2007\CTD Data\ctd-07110.cnv
# loopedit_minVelocity = 0.250                                                                                            
# loopedit_surfaceSoak: minDepth = 5.0, maxDepth = 20, useDeckPress = 1                                                   
# loopedit_excl_bad_scans = yes
# alignctd_date = Oct 15 2007 15:14:18, 5.37e
# alignctd_in = I:\Willette\OTF\CTD\2007\CTD Data\ctd-07110.cnv
# alignctd_adv = tv290C 0.500, sbeox0Mg/L 4.000, sbeox0PS 4.000                                                                                                                                                                      
# binavg_date = Oct 15 2007 15:18:47, 5.37e
# binavg_in = I:\Willette\OTF\CTD\2007\CTD Data\ctd-07110.cnv
# binavg_bintype = meters
# binavg_binsize = 1
# binavg_excl_bad_scans = yes
# binavg_skipover = 0
# binavg_surface_bin = no, min = 0.000, max = 0.000, value = 0.000
# file_type = ascii
*END*
      5.000    10.2763    30.2322    8.57721   92.46896    23.1809 3.1399e+02      5.098     1.1205 0.0000e+00
      6.000    10.2083    30.2598    8.57423   92.40675    23.2127 2.1176e+02      6.053     1.2162 0.0000e+00
      7.000    10.1467    30.3033    8.59934   92.66440    23.2582 1.3816e+02      7.042     1.2820 0.0000e+00
      8.000    10.1194    30.3333    8.70910   93.84398    23.2889 9.5262e+01      7.979     1.2869 0.0000e+00
      9.000    10.1108    30.3546    8.80313   94.85736    23.3087 6.6634e+01      8.886     1.2801 0.0000e+00
     10.000    10.1059    30.3390    8.90387   95.94716    23.2975 4.3854e+01     10.056     1.2602 0.0000e+00
     11.000    10.1010    30.3300    8.96075   96.56723    23.2915 3.1287e+01     10.992     1.2313 0.0000e+00
     12.000    10.1016    30.3308    9.03079   97.32818    23.2922 2.1356e+01     12.149     1.2178 0.0000e+00
     13.000    10.1047    30.3321    9.07319   97.79620    23.2929 1.5557e+01     13.088     1.2216 0.0000e+00
     14.000    10.1072    30.3320    9.11777   98.28299    23.2923 1.1363e+01     14.227     1.2242 0.0000e+00
     15.000    10.1107    30.3361    9.14386   98.58166    23.2951 8.6325e+00     15.096     1.2250 0.0000e+00
     16.000    10.1144    30.3362    9.17232   98.90407    23.2944 6.3826e+00     16.216     1.2387 0.0000e+00
     17.000    10.1150    30.3386    9.19643   99.15127    23.2962 5.0368e+00     17.170     1.2807 0.0000e+00
     18.000    10.1237    30.3488    9.21719   99.30742    23.3031 3.9969e+00     18.161     1.3034 0.0000e+00
     19.000    10.1254    30.3495    9.22924   99.35000    23.3027 3.2953e+00     19.257     1.3264 0.0000e+00
     20.000    10.1108    30.3592    9.24030   99.41082    23.3114 2.8089e+00     20.179     1.3476 0.0000e+00
     21.000    10.0714    30.3746    9.25021   99.46079    23.3279 2.4412e+00     21.141     1.3424 0.0000e+00
     22.000    10.0239    30.4099    9.25402   99.43937    23.3642 2.1672e+00     22.289     1.2892 0.0000e+00
     23.000     9.9929    30.4296    9.26505   99.50697    23.3846 1.9972e+00     23.196     1.3250 0.0000e+00
     24.000     9.9617    30.4521    9.27987   99.62842    23.4076 1.8568e+00     24.219     1.2708 0.0000e+00
     25.000     9.9292    30.4658    9.29341   99.69657    23.4226 1.7627e+00     25.290     1.2878 0.0000e+00
     26.000     9.9051    30.4865    9.29891   99.69249    23.4440 1.6908e+00     26.296     1.2591 0.0000e+00
     27.000     9.8875    30.4933    9.30474   99.65471    23.4517 1.6410e+00     27.367     1.2855 0.0000e+00
     28.000     9.8548    30.5031    9.31272   99.66910    23.4632 1.6082e+00     28.316     1.2857 0.0000e+00
     29.000     9.8304    30.5225    9.31628   99.66057    23.4832 1.5841e+00     29.313     1.2911 0.0000e+00
     30.000     9.7998    30.5364    9.32348   99.69927    23.4981 1.5685e+00     30.349     1.3094 0.0000e+00
     31.000     9.7563    30.5544    9.33118   99.73419    23.5176 1.5586e+00     31.309     1.3238 0.0000e+00
     32.000     9.7216    30.5823    9.33925   99.77116    23.5463 1.5523e+00     32.271     1.3290 0.0000e+00
     33.000     9.6950    30.6029    9.34532   99.81249    23.5674 1.5472e+00     33.334     1.3489 0.0000e+00
     34.000     9.6748    30.6165    9.35120   99.78901    23.5816 1.5457e+00     34.404     1.3812 0.0000e+00
     35.000     9.6528    30.6262    9.35462   99.74464    23.5921 1.5436e+00     35.361     1.3772 0.0000e+00
     36.000     9.6257    30.6374    9.35915   99.72844    23.6044 1.5431e+00     36.259     1.4129 0.0000e+00
     37.000     9.6111    30.6576    9.36661   99.74890    23.6245 1.5427e+00     37.289     1.4358 0.0000e+00
     38.000     9.5802    30.6620    9.37533   99.80921    23.6298 1.5434e+00     38.416     1.4747 0.0000e+00
     39.000     9.5229    30.6943    9.38040   99.78700    23.6633 1.5430e+00     39.394     1.4217 0.0000e+00
     40.000     9.4843    30.7236    9.38468   99.81273    23.6931 1.5429e+00     40.343     1.3920 0.0000e+00
     41.000     9.4496    30.7513    9.38994   99.85722    23.7214 1.5430e+00     41.367     1.3619 0.0000e+00
     42.000     9.4337    30.7687    9.39576   99.89307    23.7388 1.5435e+00     42.400     1.3498 0.0000e+00
     43.000     9.3921    30.7809    9.39952   99.92732    23.7523 1.5435e+00     43.414     1.3679 0.0000e+00
     44.000     9.3783    30.8063    9.40398   99.96133    23.7774 1.5432e+00     44.371     1.3526 0.0000e+00
     45.000     9.3721    30.8108    9.40541   99.96856    23.7819 1.5427e+00     45.429     1.3188 0.0000e+00
     46.000     9.3574    30.8162    9.40724   99.97900    23.7880 1.5429e+00     46.523     1.3579 0.0000e+00
     47.000     9.3569    30.8248    9.40867   99.99064    23.7961 1.5423e+00     47.423     1.3594 0.0000e+00
     48.000     9.3481    30.8230    9.40934   99.99827    23.7949 1.5425e+00     48.313     1.3510 0.0000e+00
     49.000     9.3431    30.8280    9.41045  100.00689    23.8001 1.5430e+00     49.442     1.3751 0.0000e+00
     50.000     9.3388    30.8323    9.40656   99.96959    23.8044 1.5431e+00     50.454     1.4109 0.0000e+00
     51.000     9.3368    30.8338    9.39372   99.83829    23.8059 1.5436e+00     51.252     1.4882 0.0000e+00
     52.000     9.3344    30.8377    9.40533   99.95756    23.8095 1.5453e+00     52.323     1.6066 0.0000e+00
     51.000     9.3367    30.8372    9.41676  100.09221    23.8088 1.5428e+00     51.441     1.6905 0.0000e+00
     50.000     9.3406    30.8339    9.40955  100.02220    23.8057 1.5427e+00     50.467     1.7206 0.0000e+00
     49.000     9.3463    30.8302    9.41708  100.11301    23.8019 1.5428e+00     49.474     1.6893 0.0000e+00
     48.000     9.3503    30.8275    9.42553  100.21056    23.7992 1.5434e+00     48.433     1.6385 0.0000e+00
     47.000     9.3554    30.8243    9.42421  100.20063    23.7958 1.5433e+00     47.462     1.6772 0.0000e+00
     46.000     9.3591    30.8214    9.41891  100.15834    23.7930 1.5432e+00     46.413     1.7208 0.0000e+00
     45.000     9.3610    30.8211    9.41175  100.10712    23.7924 1.5435e+00     45.441     1.6845 0.0000e+00
     44.000     9.3698    30.8182    9.40972  100.11573    23.7893 1.5430e+00     44.428     1.6885 0.0000e+00
     43.000     9.3845    30.8082    9.41428  100.22280    23.7792 1.5431e+00     43.396     1.6470 0.0000e+00
     42.000     9.4020    30.7989    9.41768  100.31001    23.7695 1.5434e+00     42.379     1.6596 0.0000e+00
     41.000     9.4332    30.7805    9.41529  100.34130    23.7506 1.5432e+00     41.390     1.6063 0.0000e+00
     40.000     9.4633    30.7618    9.41153  100.42096    23.7313 1.5435e+00     40.338     1.5129 0.0000e+00
     39.000     9.4925    30.7441    9.41048  100.47419    23.7133 1.5433e+00     39.386     1.5558 0.0000e+00
     38.000     9.5587    30.7098    9.40933  100.49338    23.6777 1.5436e+00     38.349     1.5339 0.0000e+00
     37.000     9.5923    30.6759    9.40582  100.48424    23.6438 1.5433e+00     37.377     1.5678 0.0000e+00
     36.000     9.6096    30.6632    9.40061  100.47540    23.6307 1.5440e+00     36.304     1.4752 0.0000e+00
     35.000     9.6250    30.6548    9.40187  100.52819    23.6219 1.5447e+00     35.357     1.4517 0.0000e+00
     34.000     9.6507    30.6425    9.39591  100.50739    23.6086 1.5459e+00     34.333     1.4307 0.0000e+00
     33.000     9.6730    30.6269    9.39219  100.50326    23.5926 1.5479e+00     33.304     1.4915 0.0000e+00
     32.000     9.6944    30.6155    9.38756  100.51408    23.5804 1.5510e+00     32.328     1.5335 0.0000e+00
     31.000     9.7145    30.6018    9.38557  100.55488    23.5664 1.5563e+00     31.241     1.4682 0.0000e+00
     30.000     9.7464    30.5862    9.38747  100.64625    23.5498 1.5654e+00     30.314     1.4211 0.0000e+00
     29.000     9.7824    30.5655    9.38899  100.70388    23.5284 1.5790e+00     29.245     1.5128 0.0000e+00
     28.000     9.8202    30.5403    9.38148  100.68063    23.5021 1.5994e+00     28.288     1.4011 0.0000e+00
     27.000     9.8380    30.5274    9.38036  100.71393    23.4886 1.6295e+00     27.222     1.5451 0.0000e+00
     26.000     9.8695    30.5143    9.38360  100.78072    23.4741 1.6764e+00     26.248     1.3356 0.0000e+00
     25.000     9.8899    30.4998    9.37802  100.75798    23.4588 1.7434e+00     25.246     1.3747 0.0000e+00
     24.000     9.9099    30.4905    9.37603  100.79187    23.4487 1.8319e+00     24.215     1.3722 0.0000e+00
     23.000     9.9283    30.4801    9.37947  100.88789    23.4376 1.9575e+00     23.219     1.3952 0.0000e+00
     22.000     9.9571    30.4634    9.36957  100.83964    23.4200 2.1365e+00     22.233     1.3432 0.0000e+00
     21.000     9.9945    30.4420    9.36550  100.88934    23.3979 2.3777e+00     21.169     1.4048 0.0000e+00
     20.000    10.0245    30.4222    9.36896  100.98190    23.3773 2.7169e+00     20.207     1.4292 0.0000e+00
     19.000    10.0758    30.3945    9.36560  100.95178    23.3485 3.1822e+00     19.183     1.4648 0.0000e+00
     18.000    10.1070    30.3623    9.36139  100.89953    23.3167 3.8822e+00     18.158     1.4272 0.0000e+00
     17.000    10.1123    30.3424    9.35770  100.85387    23.2995 4.8643e+00     17.169     1.3676 0.0000e+00
     16.000    10.1111    30.3351    9.35537  100.82277    23.2939 6.2105e+00     16.131     1.3791 0.0000e+00
     15.000    10.1098    30.3314    9.35218  100.78377    23.2913 8.2040e+00     15.161     1.3431 0.0000e+00
     14.000    10.1076    30.3293    9.35706  100.82592    23.2900 1.1078e+01     14.131     1.3332 0.0000e+00
     13.000    10.1058    30.3274    9.35330  100.78089    23.2887 1.5193e+01     13.109     1.2989 0.0000e+00
     12.000    10.1025    30.3227    9.35385  100.78680    23.2856 2.1093e+01     12.145     1.2535 0.0000e+00
     11.000    10.1011    30.3211    9.35813  100.83126    23.2847 2.9227e+01     11.064     1.2305 0.0000e+00
     10.000    10.1020    30.3187    9.34863  100.73611    23.2827 4.1828e+01     10.143     1.2080 0.0000e+00
      9.000    10.1031    30.3137    9.33619  100.61942    23.2787 6.0226e+01      9.009     1.2521 0.0000e+00
      8.000    10.1104    30.3037    9.32896  100.59232    23.2700 8.7564e+01      8.096     1.2488 0.0000e+00
      7.000    10.1241    30.2923    9.32700  100.66744    23.2594 1.3055e+02      7.063     1.3180 0.0000e+00
      6.000    10.1583    30.2701    9.33550  100.86716    23.2373 1.9755e+02      6.055     1.4029 0.0000e+00
      5.000    10.2119    30.2411    9.33638  100.98593    23.2070 2.9927e+02      5.052     1.3280 0.0000e+00
      4.000    10.2667    30.2141    9.32904  101.03170    23.1766 4.5942e+02      4.037     1.1940 0.0000e+00
      3.000    10.3184    30.1916    9.32196  101.39358    23.1501 6.6578e+02      3.048     1.0397 0.0000e+00
      2.000    10.3942    30.1989    9.31760  101.66235    23.1475 9.3226e+02      1.996     0.9247 0.0000e+00
      1.000    10.6052    30.1897    9.36024  100.28048    23.1070 1.5475e+03      1.070     0.7913 0.0000e+00
