* Sea-Bird SBE19plus Data File:
* FileName = C:\data\otf\2007\ctd-07024.hex
* Software Version 1.55
* Temperature SN =  5061
* Conductivity SN =  5061
* System UpLoad Time = Aug 15 2007 15:59:40
* ds
* SeacatPlus V 1.6a  SERIAL NO. 5061    15 Aug 2007  15:31:53
* vbatt = 10.9, vlith =  8.7, ioper =  61.6 ma, ipump =  57.5 ma, 
* iext01 =  95.2 ma
* iext23 =  58.1 ma
* 
* status = not logging
* number of scans to average = 1
* samples = 153039, free = 288466, casts = 154
* mode = profile, minimum cond freq = 3000, pump delay = 60 sec
* autorun = no, ignore magnetic switch = no
* battery type = alkaline, battery cutoff =  7.3 volts
* pressure sensor = strain gauge, range = 870.0
* SBE 38 = no, Gas Tension Device = no
* Ext Volt 0 = yes, Ext Volt 1 = yes, Ext Volt 2 = yes, Ext Volt 3 = yes
* echo commands = yes
* output format = raw HEX
* S>
* 
* SeacatPlus V 1.6a  SERIAL NO. 5061    15 Aug 2007  15:32:18
* temperature:  05-oct-06
*     TA0 = 1.254184e-03
*     TA1 = 2.596730e-04
*     TA2 = 5.165612e-07
*     TA3 = 1.318931e-07
*     TOFFSET = 0.000000e+00
* conductivity:  05-oct-06
*     G = -9.978144e-01
*     H = 1.555200e-01
*     I = -4.839108e-04
*     J = 6.121100e-05
*     CF0 = 2.539936e+03
*     CPCOR = -9.570000e-08
*     CTCOR = 3.250000e-06
*     CSLOPE = 1.000000e+00
* pressure S/N = 2362539, range = 870 psia:  24-aug-06
*     PA0 = 2.171091e-01
*     PA1 = 2.647085e-03
*     PA2 = 1.419397e-11
*     PTCA0 = 5.242437e+05
*     PTCA1 = 7.545345e+00
*     PTCA2 = -1.835354e-01
*     PTCB0 = 2.537125e+01
*     PTCB1 = -1.750000e-03
*     PTCB2 = 0.000000e+00
*     PTEMPA0 = -5.753989e+01
*     PTEMPA1 = 5.235813e+01
*     PTEMPA2 = -4.015521e-02
*     POFFSET = 0.000000e+00
* volt 0: offset = -4.682842e-02, slope = 1.249147e+00
* volt 1: offset = -4.695158e-02, slope = 1.248145e+00
* volt 2: offset = -4.685263e-02, slope = 1.248783e+00
* volt 3: offset = -4.690316e-02, slope = 1.249508e+00
*     EXTFREQSF = 1.000002e+00
* dh
* cast  24 06 Jul 2007 08:22:37 samples 32178 to 32470, avg = 4, stop = mag switch
* S> 
# nquan = 10
# nvalues = 158                         
# units = specified
# name 0 = depSM: Depth [salt water, m]
# name 1 = tv290C: Temperature [ITS-90, deg C]
# name 2 = sal00: Salinity [PSU]
# name 3 = sbeox0Mg/L: Oxygen, SBE 43 [mg/l]
# name 4 = sbeox0PS: Oxygen, SBE 43 [% saturation]
# name 5 = sigma-t00: Density [sigma-t, Kg/m^3 ]
# name 6 = par: PAR/Irradiance, Biospherical/Licor
# name 7 = prdM: Pressure, Strain Gauge [db]
# name 8 = flECO-AFL: Fluorescence, Wetlab ECO-AFL/FL [mg/m^3]
# name 9 = flag: flag
# span 0 =      1.000,     81.000       
# span 1 =     7.8695,     8.5516       
# span 2 =    31.0329,    31.4732       
# span 3 =    9.31567,   10.60819       
# span 4 =   96.45397,  110.79518       
# span 5 =    24.0877,    24.5237       
# span 6 = 1.5488e+00, 6.0047e+02       
# span 7 =      1.916,     80.502       
# span 8 =     0.6274,     1.6322       
# span 9 = 0.0000e+00, 0.0000e+00       
# interval = meters: 1                  
# start_time = Jul 06 2007 08:22:37
# bad_flag = -9.990e-29
# sensor 0 = Frequency 0  temperature, 5061, 05-Oct-06
# sensor 1 = Frequency 1  conductivity, 5061, 05-Oct-06, cpcor = -9.5700e-08
# sensor 2 = Pressure Number
# sensor 3 = Extrnl Volt  0  irradiance (PAR), primary, 4751, 08/10/06
# sensor 4 = Extrnl Volt  1  Oxygen, SBE, primary, 1081, 10/24/06
# sensor 5 = Extrnl Volt  2  WET Labs, ECO_AFL
# sensor 6 = Extrnl Volt  3  userpoly 0, 0627, 10/11/06
# datcnv_date = Oct 15 2007 14:49:44, 5.37e
# datcnv_in = I:\bob d\OTF_GEM\2007\ctd-07024.hex I:\Willette\OTF\CTD\5061.con
# datcnv_skipover = 0
# filter_date = Oct 15 2007 15:02:22, 5.37e
# filter_in = I:\Willette\OTF\CTD\2007\CTD Data\ctd-07024.cnv
# filter_low_pass_tc_A = 1.000
# filter_low_pass_tc_B = 0.150
# filter_low_pass_A_vars = prdM
# filter_low_pass_B_vars =
# loopedit_date = Oct 15 2007 15:06:45, 5.37e
# loopedit_in = I:\Willette\OTF\CTD\2007\CTD Data\ctd-07024.cnv
# loopedit_minVelocity = 0.250                                                                                            
# loopedit_surfaceSoak: minDepth = 5.0, maxDepth = 20, useDeckPress = 1                                                   
# loopedit_excl_bad_scans = yes
# alignctd_date = Oct 15 2007 15:14:13, 5.37e
# alignctd_in = I:\Willette\OTF\CTD\2007\CTD Data\ctd-07024.cnv
# alignctd_adv = tv290C 0.500, sbeox0Mg/L 4.000, sbeox0PS 4.000                                                                                                                                                                      
# binavg_date = Oct 15 2007 15:18:42, 5.37e
# binavg_in = I:\Willette\OTF\CTD\2007\CTD Data\ctd-07024.cnv
# binavg_bintype = meters
# binavg_binsize = 1
# binavg_excl_bad_scans = yes
# binavg_skipover = 0
# binavg_surface_bin = no, min = 0.000, max = 0.000, value = 0.000
# file_type = ascii
*END*
      4.000     8.2002    31.0329    9.31567   96.45397    24.0877 1.4923e+02      5.136     0.8262 0.0000e+00
      5.000     8.1528    31.1933    9.35271   96.83270    24.2437 1.1739e+02      5.958     0.8214 0.0000e+00
      6.000     8.1240    31.2707    9.38736   97.18821    24.3195 9.2428e+01      6.745     0.8101 0.0000e+00
      7.000     8.1120    31.2955    9.38493   97.15455    24.3447 7.3564e+01      7.559     0.8002 0.0000e+00
      8.000     8.1041    31.3096    9.39569   97.25049    24.3592 5.9124e+01      8.388     0.7693 0.0000e+00
      9.000     8.0972    31.3157    9.48164   98.13156    24.3657 4.7780e+01      9.268     0.7479 0.0000e+00
     10.000     8.0940    31.3168    9.58561   99.20516    24.3676 3.9134e+01     10.071     0.7373 0.0000e+00
     11.000     8.0848    31.3254    9.66495  100.02396    24.3754 3.1882e+01     10.949     0.7087 0.0000e+00
     12.000     8.0672    31.3245    9.72532  100.64041    24.3753 2.6122e+01     11.954     0.7122 0.0000e+00
     13.000     8.0556    31.3302    9.76661  101.05948    24.3817 2.1444e+01     12.967     0.7658 0.0000e+00
     14.000     8.0489    31.3360    9.79824  101.36475    24.3890 1.7885e+01     14.175     0.6811 0.0000e+00
     15.000     8.0481    31.3362    9.82894  101.66969    24.3903 1.4995e+01     15.225     0.6708 0.0000e+00
     16.000     8.0475    31.3383    9.84913  101.86891    24.3926 1.2549e+01     16.245     0.6629 0.0000e+00
     17.000     8.0464    31.3351    9.86143  101.98880    24.3900 1.0595e+01     17.249     0.6823 0.0000e+00
     18.000     8.0443    31.3338    9.85958  101.96379    24.3892 8.9627e+00     18.268     0.7143 0.0000e+00
     19.000     8.0419    31.3301    9.86447  102.00485    24.3865 7.6764e+00     19.215     0.7058 0.0000e+00
     20.000     8.0375    31.3323    9.89421  102.31380    24.3885 6.6424e+00     20.137     0.7947 0.0000e+00
     21.000     8.0328    31.3255    9.90847  102.45272    24.3835 5.7636e+00     21.152     0.6825 0.0000e+00
     22.000     8.0306    31.3216    9.91128  102.47473    24.3812 5.0214e+00     22.058     0.6803 0.0000e+00
     23.000     8.0292    31.3222    9.91129  102.47090    24.3823 4.3861e+00     23.085     0.6661 0.0000e+00
     24.000     8.0238    31.3225    9.92071  102.56714    24.3827 3.8977e+00     24.104     0.6591 0.0000e+00
     25.000     8.0181    31.3248    9.92211  102.57994    24.3850 3.4930e+00     25.226     0.6622 0.0000e+00
     26.000     8.0037    31.3295    9.92563  102.61377    24.3895 3.1639e+00     26.305     0.6622 0.0000e+00
     27.000     7.9994    31.3331    9.92953  102.65278    24.3931 2.8805e+00     27.286     0.6661 0.0000e+00
     28.000     7.9940    31.3510    9.94405  102.80019    24.4100 2.6255e+00     28.507     0.6978 0.0000e+00
     29.000     7.9906    31.3487    9.94998  102.85557    24.4079 2.4500e+00     29.479     0.6903 0.0000e+00
     30.000     7.9863    31.3521    9.95423  102.89688    24.4112 2.2942e+00     30.397     0.6611 0.0000e+00
     31.000     7.9848    31.3549    9.95643  102.91796    24.4138 2.1542e+00     31.363     0.6571 0.0000e+00
     32.000     7.9829    31.3587    9.95560  102.90047    24.4175 2.0448e+00     32.310     0.6804 0.0000e+00
     33.000     7.9787    31.3598    9.96313  102.97351    24.4184 1.9555e+00     33.170     0.7002 0.0000e+00
     34.000     7.9751    31.3613    9.97136  103.04910    24.4199 1.8806e+00     33.997     0.6918 0.0000e+00
     35.000     7.9730    31.3647    9.96690  102.99616    24.4231 1.8174e+00     34.862     0.6788 0.0000e+00
     36.000     7.9721    31.3687    9.96294  102.95603    24.4269 1.7638e+00     35.904     0.7054 0.0000e+00
     37.000     7.9711    31.3704    9.97034  103.03641    24.4285 1.7229e+00     37.048     0.7159 0.0000e+00
     38.000     7.9690    31.3717    9.96674  102.98997    24.4297 1.6877e+00     38.387     0.6930 0.0000e+00
     39.000     7.9681    31.3729    9.97094  103.01446    24.4308 1.6622e+00     39.539     0.6843 0.0000e+00
     40.000     7.9636    31.3744    9.98865  103.16730    24.4323 1.6404e+00     40.813     0.7026 0.0000e+00
     41.000     7.9621    31.3765    9.99343  103.22002    24.4342 1.6244e+00     41.765     0.7079 0.0000e+00
     42.000     7.9611    31.3795    9.99093  103.19419    24.4369 1.6101e+00     42.759     0.7072 0.0000e+00
     43.000     7.9543    31.3808    9.98730  103.15324    24.4382 1.5978e+00     43.782     0.7174 0.0000e+00
     44.000     7.9522    31.3828    9.99449  103.21762    24.4399 1.5888e+00     44.730     0.7560 0.0000e+00
     45.000     7.9428    31.3901    9.99973  103.27413    24.4466 1.5806e+00     45.727     0.7044 0.0000e+00
     46.000     7.9426    31.3927    9.99800  103.25332    24.4488 1.5746e+00     46.685     0.7628 0.0000e+00
     47.000     7.9440    31.4015    9.99823  103.24654    24.4571 1.5690e+00     47.595     0.8362 0.0000e+00
     48.000     7.9486    31.4018    9.98238  103.07918    24.4572 1.5655e+00     48.609     0.7276 0.0000e+00
     49.000     7.9430    31.3989    9.99445  103.20201    24.4549 1.5616e+00     49.691     0.8076 0.0000e+00
     50.000     7.9401    31.3953    9.98727  103.11984    24.4514 1.5596e+00     50.554     0.7627 0.0000e+00
     51.000     7.9333    31.4010   10.02755  103.53691    24.4565 1.5577e+00     51.497     0.6978 0.0000e+00
     52.000     7.9261    31.4041    9.99625  103.21457    24.4595 1.5560e+00     52.411     0.7471 0.0000e+00
     53.000     7.9134    31.4106    9.98122  103.06126    24.4655 1.5543e+00     53.460     0.7366 0.0000e+00
     54.000     7.9134    31.4198   10.01279  103.37384    24.4742 1.5537e+00     54.598     0.7305 0.0000e+00
     55.000     7.9146    31.4290    9.99710  103.21185    24.4827 1.5532e+00     55.362     0.7851 0.0000e+00
     56.000     7.9142    31.4290   10.00407  103.28595    24.4828 1.5524e+00     56.340     0.8423 0.0000e+00
     57.000     7.9105    31.4279   10.01447  103.39374    24.4817 1.5525e+00     57.645     0.9906 0.0000e+00
     58.000     7.9047    31.4285   10.00452  103.28742    24.4823 1.5513e+00     58.411     0.8818 0.0000e+00
     59.000     7.9073    31.4331   10.00469  103.28453    24.4866 1.5508e+00     59.450     0.8534 0.0000e+00
     60.000     7.9036    31.4336   10.00315  103.26350    24.4871 1.5509e+00     60.432     0.8697 0.0000e+00
     61.000     7.9005    31.4344   10.00353  103.26103    24.4879 1.5505e+00     61.417     0.8818 0.0000e+00
     62.000     7.8985    31.4386   10.00141  103.22975    24.4918 1.5504e+00     62.510     0.9132 0.0000e+00
     63.000     7.8942    31.4414   10.00451  103.25785    24.4945 1.5502e+00     63.603     0.9960 0.0000e+00
     64.000     7.8941    31.4430   10.00426  103.25685    24.4960 1.5498e+00     64.447     1.0240 0.0000e+00
     65.000     7.8944    31.4476   10.00888  103.30450    24.5002 1.5504e+00     65.525     1.0082 0.0000e+00
     66.000     7.8957    31.4469   10.01056  103.32636    24.4997 1.5496e+00     66.598     0.9970 0.0000e+00
     67.000     7.8881    31.4467   10.00884  103.30378    24.4993 1.5498e+00     67.439     1.0437 0.0000e+00
     68.000     7.8884    31.4488   10.02906  103.51266    24.5013 1.5499e+00     68.528     1.0201 0.0000e+00
     69.000     7.8890    31.4525   10.01281  103.34562    24.5047 1.5500e+00     69.581     1.0677 0.0000e+00
     70.000     7.8877    31.4527   10.01303  103.34710    24.5049 1.5500e+00     70.580     1.1074 0.0000e+00
     71.000     7.8848    31.4523   10.01114  103.32676    24.5045 1.5500e+00     71.559     1.1708 0.0000e+00
     72.000     7.8830    31.4543   10.00823  103.29679    24.5063 1.5495e+00     72.582     1.0305 0.0000e+00
     73.000     7.8777    31.4572   10.00839  103.29803    24.5090 1.5495e+00     73.527     1.0821 0.0000e+00
     74.000     7.8720    31.4611    9.99234  103.13421    24.5126 1.5499e+00     74.514     1.0131 0.0000e+00
     75.000     7.8695    31.4669    9.98649  103.07563    24.5178 1.5496e+00     75.513     1.1566 0.0000e+00
     76.000     7.8704    31.4726    9.98750  103.08601    24.5231 1.5498e+00     76.390     1.3368 0.0000e+00
     77.000     7.8705    31.4732    9.98001  103.01058    24.5237 1.5496e+00     77.162     1.3686 0.0000e+00
     78.000     7.8725    31.4719    9.99311  103.14642    24.5225 1.5495e+00     77.977     1.3671 0.0000e+00
     79.000     7.8700    31.4717    9.99111  103.12709    24.5223 1.5491e+00     78.716     1.3350 0.0000e+00
     80.000     7.8702    31.4714    9.98268  103.04218    24.5220 1.5495e+00     79.378     1.3687 0.0000e+00
     81.000     7.8706    31.4731    9.98237  103.03859    24.5235 1.5489e+00     80.502     1.4765 0.0000e+00
     80.000     7.8730    31.4723    9.96158  102.82992    24.5227 1.5498e+00     80.040     1.6322 0.0000e+00
     79.000     7.8747    31.4698    9.98829  103.10948    24.5205 1.5494e+00     79.262     1.4956 0.0000e+00
     78.000     7.8759    31.4677   10.01572  103.39447    24.5186 1.5491e+00     78.373     1.3840 0.0000e+00
     77.000     7.8745    31.4665    9.98064  103.04172    24.5175 1.5489e+00     77.537     1.3076 0.0000e+00
     76.000     7.8761    31.4675    9.98794  103.12233    24.5185 1.5492e+00     76.611     1.3142 0.0000e+00
     75.000     7.8744    31.4658    9.97874  103.03005    24.5170 1.5495e+00     75.680     1.3597 0.0000e+00
     74.000     7.8740    31.4677    9.98796  103.13247    24.5186 1.5489e+00     74.642     1.4002 0.0000e+00
     73.000     7.8770    31.4678    9.99521  103.21102    24.5188 1.5493e+00     73.713     1.2875 0.0000e+00
     72.000     7.8804    31.4644    9.99546  103.21388    24.5157 1.5491e+00     72.632     1.2711 0.0000e+00
     71.000     7.8816    31.4612    9.99651  103.22405    24.5128 1.5495e+00     71.745     1.2836 0.0000e+00
     70.000     7.8841    31.4598    9.99861  103.24774    24.5115 1.5488e+00     70.680     1.2411 0.0000e+00
     69.000     7.8898    31.4569    9.99775  103.24185    24.5089 1.5493e+00     69.618     1.2084 0.0000e+00
     68.000     7.8916    31.4514    9.99872  103.26408    24.5038 1.5489e+00     68.641     1.0456 0.0000e+00
     67.000     7.8946    31.4491    9.99412  103.22551    24.5017 1.5489e+00     67.687     1.0790 0.0000e+00
     66.000     7.8982    31.4458   10.00294  103.32159    24.4987 1.5490e+00     66.700     1.0723 0.0000e+00
     65.000     7.8993    31.4421    9.99615  103.25781    24.4952 1.5489e+00     65.659     1.0473 0.0000e+00
     64.000     7.8989    31.4409    9.99859  103.29038    24.4941 1.5489e+00     64.601     1.0565 0.0000e+00
     63.000     7.8997    31.4414   10.00007  103.31010    24.4946 1.5494e+00     63.562     1.1033 0.0000e+00
     62.000     7.9007    31.4408    9.99448  103.25505    24.4940 1.5492e+00     62.659     1.0357 0.0000e+00
     61.000     7.9052    31.4393   10.00470  103.35859    24.4927 1.5492e+00     61.580     1.0770 0.0000e+00
     60.000     7.9128    31.4350    9.99302  103.23499    24.4885 1.5495e+00     60.524     1.0271 0.0000e+00
     59.000     7.9160    31.4293    9.98893  103.19393    24.4831 1.5497e+00     59.527     0.9806 0.0000e+00
     58.000     7.9190    31.4265    9.98837  103.19427    24.4806 1.5500e+00     58.585     0.9212 0.0000e+00
     57.000     7.9224    31.4233    9.99469  103.26244    24.4775 1.5501e+00     57.544     0.9180 0.0000e+00
     56.000     7.9261    31.4204   10.00479  103.36918    24.4748 1.5507e+00     56.553     0.9000 0.0000e+00
     55.000     7.9277    31.4171   10.01028  103.42528    24.4716 1.5513e+00     55.561     0.8654 0.0000e+00
     54.000     7.9272    31.4156   10.01310  103.45400    24.4703 1.5515e+00     54.525     0.8022 0.0000e+00
     53.000     7.9255    31.4161   10.00679  103.38781    24.4707 1.5523e+00     53.460     0.8771 0.0000e+00
     52.000     7.9258    31.4176   10.00943  103.42014    24.4721 1.5533e+00     52.348     0.8912 0.0000e+00
     51.000     7.9284    31.4177   10.00541  103.39226    24.4723 1.5545e+00     51.464     0.8304 0.0000e+00
     50.000     7.9309    31.4148   10.01007  103.43980    24.4696 1.5564e+00     50.400     0.8463 0.0000e+00
     49.000     7.9323    31.4129   10.01966  103.53861    24.4678 1.5583e+00     49.431     0.8246 0.0000e+00
     48.000     7.9323    31.4110   10.01689  103.51128    24.4661 1.5608e+00     48.355     0.8835 0.0000e+00
     47.000     7.9322    31.4110   10.01665  103.51130    24.4660 1.5642e+00     47.405     0.9186 0.0000e+00
     46.000     7.9318    31.4110   10.02563  103.60898    24.4660 1.5685e+00     46.394     0.9238 0.0000e+00
     45.000     7.9314    31.4112   10.02639  103.62493    24.4662 1.5747e+00     45.442     0.8136 0.0000e+00
     44.000     7.9344    31.4116   10.02320  103.60013    24.4666 1.5820e+00     44.476     0.8446 0.0000e+00
     43.000     7.9431    31.4097   10.02885  103.67035    24.4649 1.5901e+00     43.388     0.8150 0.0000e+00
     42.000     7.9425    31.4018   10.02834  103.66814    24.4577 1.5994e+00     42.520     0.8598 0.0000e+00
     41.000     7.9418    31.4002   10.03407  103.73309    24.4561 1.6124e+00     41.515     0.7889 0.0000e+00
     40.000     7.9426    31.4009   10.04267  103.82703    24.4567 1.6289e+00     40.509     0.8028 0.0000e+00
     39.000     7.9443    31.4000   10.03707  103.77092    24.4560 1.6481e+00     39.403     0.8193 0.0000e+00
     38.000     7.9483    31.3983   10.04122  103.81325    24.4544 1.6725e+00     38.391     0.8066 0.0000e+00
     37.000     7.9532    31.3941   10.05007  103.90578    24.4505 1.7037e+00     37.417     0.7657 0.0000e+00
     36.000     7.9604    31.3884   10.04352  103.84249    24.4452 1.7413e+00     36.295     0.7798 0.0000e+00
     35.000     7.9647    31.3815   10.03117  103.72781    24.4389 1.7868e+00     35.284     0.7490 0.0000e+00
     34.000     7.9682    31.3773   10.01982  103.63582    24.4350 1.8431e+00     34.314     0.7668 0.0000e+00
     33.000     7.9718    31.3735   10.03134  103.77646    24.4316 1.9116e+00     33.286     0.8397 0.0000e+00
     32.000     7.9730    31.3695   10.04454  103.92815    24.4279 2.0004e+00     32.144     0.8018 0.0000e+00
     31.000     7.9726    31.3684   10.04755  103.96661    24.4269 2.1072e+00     31.129     0.8878 0.0000e+00
     30.000     7.9728    31.3684   10.05611  104.05891    24.4269 2.2413e+00     30.116     0.7075 0.0000e+00
     29.000     7.9746    31.3687   10.06154  104.11886    24.4271 2.4111e+00     29.200     0.7447 0.0000e+00
     28.000     7.9765    31.3673   10.06975  104.21489    24.4258 2.6123e+00     28.138     0.7370 0.0000e+00
     27.000     7.9849    31.3653   10.06781  104.20321    24.4240 2.8582e+00     27.159     0.7951 0.0000e+00
     26.000     7.9989    31.3590   10.06987  104.23619    24.4180 3.1557e+00     26.156     0.7204 0.0000e+00
     25.000     8.0082    31.3478   10.06759  104.22246    24.4075 3.4987e+00     25.186     0.6869 0.0000e+00
     24.000     8.0151    31.3389   10.07636  104.32045    24.3990 3.9281e+00     24.207     0.6955 0.0000e+00
     23.000     8.0198    31.3321   10.08691  104.43820    24.3926 4.4320e+00     23.181     0.6274 0.0000e+00
     22.000     8.0223    31.3281   10.10384  104.62614    24.3887 5.0597e+00     22.184     0.6877 0.0000e+00
     21.000     8.0238    31.3250   10.11695  104.77315    24.3859 5.7907e+00     21.211     0.7060 0.0000e+00
     20.000     8.0258    31.3242   10.12293  104.84542    24.3851 6.6875e+00     20.190     0.6817 0.0000e+00
     19.000     8.0311    31.3233   10.12433  104.87499    24.3841 7.7621e+00     19.189     0.6958 0.0000e+00
     18.000     8.0349    31.3217   10.13553  105.02374    24.3823 9.0934e+00     18.188     0.7166 0.0000e+00
     17.000     8.0404    31.3186   10.13591  105.04636    24.3791 1.0695e+01     17.141     0.6919 0.0000e+00
     16.000     8.0448    31.3183   10.15015  105.22167    24.3783 1.2621e+01     16.220     0.6734 0.0000e+00
     15.000     8.0486    31.3160   10.13726  105.11590    24.3758 1.4948e+01     15.248     0.7255 0.0000e+00
     14.000     8.0523    31.3138   10.15152  105.28964    24.3734 1.7958e+01     14.304     0.7058 0.0000e+00
     13.000     8.0593    31.3105   10.24310  106.26489    24.3703 2.1675e+01     13.285     0.6908 0.0000e+00
     12.000     8.0652    31.3065   10.31028  106.99374    24.3662 2.6298e+01     12.255     0.7146 0.0000e+00
     11.000     8.0718    31.3037   10.39900  108.05493    24.3630 3.1964e+01     11.165     0.7166 0.0000e+00
     10.000     8.0842    31.3021   10.49950  109.38531    24.3611 3.8773e+01     10.142     0.7544 0.0000e+00
      9.000     8.0986    31.2990   10.60819  110.79518    24.3571 4.7263e+01      9.160     0.7360 0.0000e+00
      8.000     8.1117    31.2901   10.42530  108.82895    24.3478 5.8248e+01      8.143     0.7356 0.0000e+00
      7.000     8.1282    31.2846   10.53805  106.30186    24.3415 7.1944e+01      7.116     0.7529 0.0000e+00
      6.000     8.1420    31.2774 -9.990e-29 -9.990e-29    24.3337 8.9258e+01      6.191     0.7992 0.0000e+00
      5.000     8.1567    31.2693 -9.990e-29 -9.990e-29    24.3251 1.0858e+02      5.095     0.7188 0.0000e+00
      4.000     8.1735    31.2623 -9.990e-29 -9.990e-29    24.3178 1.3780e+02      4.268     0.8139 0.0000e+00
      3.000     8.2679    31.2512 -9.990e-29 -9.990e-29    24.3065 1.7594e+02      3.330     0.8253 0.0000e+00
      2.000     8.4432    31.1853 -9.990e-29 -9.990e-29    24.2428 2.3430e+02      2.563     0.8246 0.0000e+00
      1.000     8.5516    31.0518 -9.990e-29 -9.990e-29    24.1151 6.0047e+02      1.916     0.6455 0.0000e+00
