* Sea-Bird SBE19plus Data File:
* FileName = C:\data\otf\2007\ctd-07086.hex
* Software Version 1.55
* Temperature SN =  5061
* Conductivity SN =  5061
* System UpLoad Time = Aug 15 2007 16:23:25
* ds
* SeacatPlus V 1.6a  SERIAL NO. 5061    15 Aug 2007  15:31:53
* vbatt = 10.9, vlith =  8.7, ioper =  61.6 ma, ipump =  57.5 ma, 
* iext01 =  95.2 ma
* iext23 =  58.1 ma
* 
* status = not logging
* number of scans to average = 1
* samples = 153039, free = 288466, casts = 154
* mode = profile, minimum cond freq = 3000, pump delay = 60 sec
* autorun = no, ignore magnetic switch = no
* battery type = alkaline, battery cutoff =  7.3 volts
* pressure sensor = strain gauge, range = 870.0
* SBE 38 = no, Gas Tension Device = no
* Ext Volt 0 = yes, Ext Volt 1 = yes, Ext Volt 2 = yes, Ext Volt 3 = yes
* echo commands = yes
* output format = raw HEX
* S>
* 
* SeacatPlus V 1.6a  SERIAL NO. 5061    15 Aug 2007  15:32:18
* temperature:  05-oct-06
*     TA0 = 1.254184e-03
*     TA1 = 2.596730e-04
*     TA2 = 5.165612e-07
*     TA3 = 1.318931e-07
*     TOFFSET = 0.000000e+00
* conductivity:  05-oct-06
*     G = -9.978144e-01
*     H = 1.555200e-01
*     I = -4.839108e-04
*     J = 6.121100e-05
*     CF0 = 2.539936e+03
*     CPCOR = -9.570000e-08
*     CTCOR = 3.250000e-06
*     CSLOPE = 1.000000e+00
* pressure S/N = 2362539, range = 870 psia:  24-aug-06
*     PA0 = 2.171091e-01
*     PA1 = 2.647085e-03
*     PA2 = 1.419397e-11
*     PTCA0 = 5.242437e+05
*     PTCA1 = 7.545345e+00
*     PTCA2 = -1.835354e-01
*     PTCB0 = 2.537125e+01
*     PTCB1 = -1.750000e-03
*     PTCB2 = 0.000000e+00
*     PTEMPA0 = -5.753989e+01
*     PTEMPA1 = 5.235813e+01
*     PTEMPA2 = -4.015521e-02
*     POFFSET = 0.000000e+00
* volt 0: offset = -4.682842e-02, slope = 1.249147e+00
* volt 1: offset = -4.695158e-02, slope = 1.248145e+00
* volt 2: offset = -4.685263e-02, slope = 1.248783e+00
* volt 3: offset = -4.690316e-02, slope = 1.249508e+00
*     EXTFREQSF = 1.000002e+00
* dh
* cast  86 16 Jul 2007 07:36:04 samples 54968 to 55399, avg = 4, stop = mag switch
* S> 
# nquan = 10
# nvalues = 172                         
# units = specified
# name 0 = depSM: Depth [salt water, m]
# name 1 = tv290C: Temperature [ITS-90, deg C]
# name 2 = sal00: Salinity [PSU]
# name 3 = sbeox0Mg/L: Oxygen, SBE 43 [mg/l]
# name 4 = sbeox0PS: Oxygen, SBE 43 [% saturation]
# name 5 = sigma-t00: Density [sigma-t, Kg/m^3 ]
# name 6 = par: PAR/Irradiance, Biospherical/Licor
# name 7 = prdM: Pressure, Strain Gauge [db]
# name 8 = flECO-AFL: Fluorescence, Wetlab ECO-AFL/FL [mg/m^3]
# name 9 = flag: flag
# span 0 =      1.000,     88.000       
# span 1 =     8.0607,     8.8243       
# span 2 =    31.1797,    31.7044       
# span 3 =    8.08236,   11.34643       
# span 4 =   84.42948,  102.68165       
# span 5 =    24.1676,    24.6779       
# span 6 = 1.5489e+00, 4.7284e+02       
# span 7 =      1.843,     87.679       
# span 8 =     0.6556,     1.2200       
# span 9 = 0.0000e+00, 0.0000e+00       
# interval = meters: 1                  
# start_time = Jul 16 2007 07:36:04
# bad_flag = -9.990e-29
# sensor 0 = Frequency 0  temperature, 5061, 05-Oct-06
# sensor 1 = Frequency 1  conductivity, 5061, 05-Oct-06, cpcor = -9.5700e-08
# sensor 2 = Pressure Number
# sensor 3 = Extrnl Volt  0  irradiance (PAR), primary, 4751, 08/10/06
# sensor 4 = Extrnl Volt  1  Oxygen, SBE, primary, 1081, 10/24/06
# sensor 5 = Extrnl Volt  2  WET Labs, ECO_AFL
# sensor 6 = Extrnl Volt  3  userpoly 0, 0627, 10/11/06
# datcnv_date = Oct 15 2007 14:49:46, 5.37e
# datcnv_in = I:\bob d\OTF_GEM\2007\ctd-07086.hex I:\Willette\OTF\CTD\5061.con
# datcnv_skipover = 0
# filter_date = Oct 15 2007 15:02:27, 5.37e
# filter_in = I:\Willette\OTF\CTD\2007\CTD Data\ctd-07086.cnv
# filter_low_pass_tc_A = 1.000
# filter_low_pass_tc_B = 0.150
# filter_low_pass_A_vars = prdM
# filter_low_pass_B_vars =
# loopedit_date = Oct 15 2007 15:06:49, 5.37e
# loopedit_in = I:\Willette\OTF\CTD\2007\CTD Data\ctd-07086.cnv
# loopedit_minVelocity = 0.250                                                                                            
# loopedit_surfaceSoak: minDepth = 5.0, maxDepth = 20, useDeckPress = 1                                                   
# loopedit_excl_bad_scans = yes
# alignctd_date = Oct 15 2007 15:14:16, 5.37e
# alignctd_in = I:\Willette\OTF\CTD\2007\CTD Data\ctd-07086.cnv
# alignctd_adv = tv290C 0.500, sbeox0Mg/L 4.000, sbeox0PS 4.000                                                                                                                                                                      
# binavg_date = Oct 15 2007 15:18:45, 5.37e
# binavg_in = I:\Willette\OTF\CTD\2007\CTD Data\ctd-07086.cnv
# binavg_bintype = meters
# binavg_binsize = 1
# binavg_excl_bad_scans = yes
# binavg_skipover = 0
# binavg_surface_bin = no, min = 0.000, max = 0.000, value = 0.000
# file_type = ascii
*END*
      4.000     8.6356    31.2104    8.29012   86.74185    24.1907 1.2949e+02      4.754     0.7368 0.0000e+00
      5.000     8.5033    31.2484    8.19083   85.68659    24.2295 9.5060e+01      5.626     0.8240 0.0000e+00
      6.000     8.4298    31.3165    8.08236   84.42948    24.2970 7.2654e+01      6.404     0.8875 0.0000e+00
      7.000     8.3789    31.4050    8.13662   84.88863    24.3818 5.9867e+01      7.240     0.8206 0.0000e+00
      8.000     8.3708    31.4570    8.32713   86.85144    24.4322 5.0270e+01      7.983     0.7814 0.0000e+00
      9.000 -9.990e-29 -9.990e-29 -9.990e-29 -9.990e-29 -9.990e-29 -9.990e-29 -9.990e-29 -9.990e-29 -9.990e-29
     10.000     8.3621    31.5028    8.67751   90.47317    24.4753 3.3646e+01      9.305     0.7460 0.0000e+00
     11.000     8.3842    31.5014    8.85380   92.28173    24.4744 2.7258e+01     10.222     0.7142 0.0000e+00
     12.000     8.4080    31.5421    9.04422   94.24650    24.5046 2.2738e+01     11.535     0.7139 0.0000e+00
     13.000     8.4417    31.5295    9.33583   97.23926    24.4836 1.8920e+01     13.685     0.6922 0.0000e+00
     14.000     8.3080    31.5382    9.53041   99.26103    24.4964 1.6309e+01     14.955     0.6964 0.0000e+00
     15.000     8.2991    31.5320    9.56403   99.60514    24.5047 1.3914e+01     15.734     0.7170 0.0000e+00
     16.000     8.2869    31.5498    9.59483   99.92434    24.5215 1.1946e+01     16.715     0.7037 0.0000e+00
     17.000     8.2729    31.5568    9.61629  100.14410    24.5290 1.0259e+01     17.655     0.7012 0.0000e+00
     18.000     8.2671    31.5539    9.63335  100.31493    24.5278 8.9366e+00     18.647     0.6556 0.0000e+00
     19.000     8.2651    31.5614    9.64732  100.45237    24.5358 7.8588e+00     19.444     0.6926 0.0000e+00
     20.000     8.2578    31.5624    9.65837  100.56212    24.5368 6.8932e+00     20.428     0.6945 0.0000e+00
     21.000     8.2522    31.5623    9.67628  100.73611    24.5375 6.1275e+00     21.335     0.6982 0.0000e+00
     22.000     8.2469    31.5644    9.68754  100.84413    24.5398 5.4529e+00     22.167     0.7047 0.0000e+00
     23.000     8.2433    31.5628    9.69422  100.91462    24.5393 4.8649e+00     23.032     0.6997 0.0000e+00
     24.000     8.2413    31.5644    9.70240  101.00106    24.5415 4.3765e+00     23.967     0.6742 0.0000e+00
     25.000     8.2396    31.5665    9.70645  101.03938    24.5435 3.9914e+00     24.706     0.6645 0.0000e+00
     26.000     8.2377    31.5679    9.71528  101.13064    24.5449 3.6347e+00     25.443     0.6629 0.0000e+00
     27.000     8.2341    31.5704    9.72513  101.23448    24.5472 3.3052e+00     26.670     0.6618 0.0000e+00
     28.000     8.2314    31.5730    9.73424  101.32394    24.5499 3.0468e+00     28.023     0.6566 0.0000e+00
     29.000     8.2240    31.5754    9.73855  101.33007    24.5523 2.8362e+00     29.550     0.6573 0.0000e+00
     30.000     8.2188    31.5801    9.73296  101.23573    24.5568 2.6570e+00     30.646     0.6739 0.0000e+00
     31.000     8.2084    31.5824    9.73993  101.29382    24.5592 2.4982e+00     31.560     0.6701 0.0000e+00
     32.000     8.2078    31.5875    9.74493  101.35078    24.5642 2.3657e+00     32.421     0.6642 0.0000e+00
     33.000     8.2094    31.5939    9.74884  101.39328    24.5703 2.2513e+00     33.354     0.6793 0.0000e+00
     34.000     8.2072    31.5919    9.75470  101.45402    24.5683 2.1543e+00     34.301     0.6779 0.0000e+00
     35.000     8.2072    31.5931    9.76042  101.51442    24.5695 2.0700e+00     35.179     0.6763 0.0000e+00
     36.000     8.2079    31.5931    9.76203  101.52564    24.5696 1.9951e+00     36.031     0.6639 0.0000e+00
     37.000     8.2050    31.5929    9.76639  101.56855    24.5694 1.9335e+00     37.054     0.6675 0.0000e+00
     38.000     8.2035    31.5942    9.76887  101.56556    24.5706 1.8808e+00     37.883     0.6579 0.0000e+00
     39.000     8.1879    31.5956    9.76946  101.54644    24.5720 1.8321e+00     38.756     0.6833 0.0000e+00
     40.000     8.1658    31.5996    9.77004  101.54802    24.5763 1.7939e+00     39.506     0.6972 0.0000e+00
     41.000     8.1594    31.6266    9.78304  101.67428    24.6027 1.7579e+00     41.289     0.7116 0.0000e+00
     42.000     8.1586    31.6246    9.78267  101.65398    24.6009 1.7297e+00     43.198     0.6959 0.0000e+00
     43.000     8.1440    31.6267    9.78493  101.67358    24.6029 1.7051e+00     43.850     0.7275 0.0000e+00
     44.000     8.1279    31.6332    9.78716  101.69063    24.6099 1.6844e+00     44.710     0.7236 0.0000e+00
     45.000     8.1261    31.6444    9.78936  101.71073    24.6208 1.6658e+00     45.630     0.7444 0.0000e+00
     46.000     8.1250    31.6475    9.78093  101.62285    24.6238 1.6493e+00     46.483     0.7338 0.0000e+00
     47.000     8.1230    31.6484    9.78844  101.70393    24.6248 1.6348e+00     47.522     0.7442 0.0000e+00
     48.000     8.1212    31.6495    9.79376  101.75113    24.6259 1.6234e+00     48.443     0.7492 0.0000e+00
     49.000     8.1124    31.6509    9.79434  101.75062    24.6272 1.6124e+00     49.593     0.7566 0.0000e+00
     50.000     8.1144    31.6554    9.79541  101.76295    24.6316 1.6039e+00     50.469     0.7615 0.0000e+00
     51.000     8.1112    31.6566    9.79370  101.74703    24.6327 1.5964e+00     51.440     0.7680 0.0000e+00
     52.000     8.1072    31.6589    9.79206  101.73114    24.6350 1.5883e+00     52.428     0.7547 0.0000e+00
     53.000     8.1058    31.6609    9.79283  101.74026    24.6370 1.5822e+00     53.433     0.7695 0.0000e+00
     54.000     8.1048    31.6628    9.79662  101.77569    24.6388 1.5780e+00     54.347     0.7659 0.0000e+00
     55.000     8.1065    31.6643    9.80282  101.83712    24.6402 1.5748e+00     55.433     0.7599 0.0000e+00
     56.000     8.1016    31.6630    9.80468  101.85582    24.6389 1.5713e+00     56.413     0.7686 0.0000e+00
     57.000     8.0984    31.6679    9.80586  101.86838    24.6435 1.5684e+00     57.481     0.8194 0.0000e+00
     58.000     8.0991    31.6713    9.80216  101.82959    24.6466 1.5650e+00     58.454     0.8237 0.0000e+00
     59.000     8.1003    31.6705    9.80159  101.82431    24.6458 1.5620e+00     59.535     0.8070 0.0000e+00
     60.000     8.1009    31.6693    9.80190  101.82763    24.6447 1.5613e+00     60.444     0.7826 0.0000e+00
     61.000     8.0985    31.6687    9.80464  101.84470    24.6442 1.5600e+00     61.501     0.8073 0.0000e+00
     62.000     8.0968    31.6710    9.80861  101.86524    24.6463 1.5585e+00     62.333     0.8383 0.0000e+00
     63.000     8.0963    31.6733    9.81217  101.89785    24.6484 1.5570e+00     63.116     0.8335 0.0000e+00
     64.000     8.0966    31.6742    9.81765  101.94557    24.6492 1.5562e+00     65.229     0.8217 0.0000e+00
     65.000     8.0968    31.6735    9.81508  101.92257    24.6485 1.5547e+00     66.455     0.8490 0.0000e+00
     66.000     8.0958    31.6736    9.81463  101.91754    24.6486 1.5543e+00     67.319     0.8859 0.0000e+00
     67.000     8.0821    31.6739    9.81781  101.95211    24.6489 1.5536e+00     68.185     0.8528 0.0000e+00
     68.000     8.0778    31.6828    9.81961  101.96881    24.6572 1.5531e+00     69.038     0.8875 0.0000e+00
     69.000     8.0759    31.6914    9.82112  101.98309    24.6653 1.5521e+00     69.918     0.9079 0.0000e+00
     70.000     8.0747    31.6929    9.82088  101.98112    24.6666 1.5518e+00     70.868     0.9659 0.0000e+00
     71.000     8.0713    31.6937    9.82016  101.97125    24.6674 1.5518e+00     71.846     1.0111 0.0000e+00
     72.000     8.0706    31.6960    9.82048  101.97411    24.6697 1.5512e+00     72.795     0.9719 0.0000e+00
     73.000     8.0708    31.6974    9.82011  101.97015    24.6710 1.5509e+00     73.742     0.9992 0.0000e+00
     74.000     8.0718    31.6975    9.81958  101.96372    24.6711 1.5510e+00     74.637     1.0023 0.0000e+00
     75.000     8.0734    31.6975    9.82181  101.98690    24.6711 1.5506e+00     75.592     0.9843 0.0000e+00
     76.000     8.0722    31.6963    9.82591  102.02900    24.6699 1.5498e+00     76.640     0.9719 0.0000e+00
     77.000     8.0721    31.6964    9.83017  102.07367    24.6700 1.5492e+00     77.657     0.9622 0.0000e+00
     78.000     8.0729    31.6968    9.83037  102.07676    24.6704 1.5508e+00     78.591     0.9464 0.0000e+00
     79.000     8.0723    31.6963    9.82964  102.06934    24.6699 1.5508e+00     79.548     0.9512 0.0000e+00
     80.000     8.0712    31.6960    9.82996  102.07282    24.6695 1.5506e+00     80.475     0.9623 0.0000e+00
     81.000     8.0708    31.6973    9.82895  102.06321    24.6708 1.5509e+00     81.482     0.9787 0.0000e+00
     82.000     8.0696    31.6977    9.82388  102.01281    24.6712 1.5509e+00     82.544     0.9623 0.0000e+00
     83.000     8.0695    31.6985    9.82221  101.99335    24.6720 1.5507e+00     83.529     0.9638 0.0000e+00
     84.000     8.0691    31.6991    9.81997  101.97052    24.6725 1.5500e+00     84.466     1.0017 0.0000e+00
     85.000     8.0689    31.6994    9.82002  101.96844    24.6728 1.5499e+00     85.311     0.9940 0.0000e+00
     86.000     8.0689    31.6995    9.81775  101.94172    24.6729 1.5498e+00     86.098     1.0199 0.0000e+00
     87.000     8.0692    31.6998    9.81541  101.91631    24.6731 1.5496e+00     86.846     1.0432 0.0000e+00
     88.000     8.0699    31.6993    9.81757  101.93194    24.6726 1.5493e+00     87.679     1.0615 0.0000e+00
     87.000     8.0679    31.6995    9.81699  101.93585    24.6727 1.5492e+00     86.865     1.0532 0.0000e+00
     86.000     8.0670    31.7000    9.81563  101.91898    24.6734 1.5493e+00     86.197     1.2200 0.0000e+00
     85.000     8.0667    31.7013    9.82015  101.96861    24.6746 1.5491e+00     85.453     1.1022 0.0000e+00
     84.000     8.0631    31.7007    9.81643  101.93699    24.6741 1.5489e+00     84.582     1.0544 0.0000e+00
     83.000     8.0624    31.7030    9.81489  101.92160    24.6764 1.5492e+00     83.700     1.1798 0.0000e+00
     82.000     8.0607    31.7031    9.81761  101.95149    24.6766 1.5494e+00     82.750     1.0659 0.0000e+00
     81.000     8.0619    31.7044    9.81856  101.96744    24.6779 1.5494e+00     81.854     1.0537 0.0000e+00
     80.000     8.0630    31.7038    9.81301  101.91202    24.6774 1.5493e+00     80.853     1.0824 0.0000e+00
     79.000     8.0645    31.7033    9.81486  101.93089    24.6768 1.5495e+00     79.901     1.0781 0.0000e+00
     78.000     8.0687    31.7021    9.81173  101.90094    24.6757 1.5496e+00     78.916     1.0422 0.0000e+00
     77.000     8.0677    31.6990    9.81442  101.93004    24.6726 1.5496e+00     77.941     1.0331 0.0000e+00
     76.000     8.0724    31.6996    9.82023  101.98601    24.6731 1.5497e+00     76.865     1.0246 0.0000e+00
     75.000     8.0732    31.6958    9.81726  101.96253    24.6695 1.5500e+00     75.912     1.0526 0.0000e+00
     74.000     8.0756    31.6949    9.81275  101.93270    24.6686 1.5501e+00     74.860     0.9866 0.0000e+00
     73.000     8.0784    31.6929    9.80844  101.88859    24.6666 1.5503e+00     73.872     0.9833 0.0000e+00
     72.000     8.0787    31.6911    9.80723  101.87931    24.6650 1.5506e+00     72.757     0.9965 0.0000e+00
     71.000     8.0802    31.6907    9.80878  101.89100    24.6645 1.5509e+00     71.813     1.0121 0.0000e+00
     70.000     8.0781    31.6894    9.81596  101.96631    24.6633 1.5510e+00     70.766     1.0003 0.0000e+00
     69.000     8.0855    31.6906    9.81783  101.98697    24.6645 1.5516e+00     69.714     1.0215 0.0000e+00
     68.000     8.0933    31.6818    9.81066  101.91799    24.6562 1.5518e+00     68.722     0.9902 0.0000e+00
     67.000     8.0943    31.6733    9.81542  101.97143    24.6488 1.5525e+00     67.597     0.9789 0.0000e+00
     66.000     8.0912    31.6781    9.80646  101.88051    24.6527 1.5528e+00     66.539     1.0169 0.0000e+00
     65.000     8.0926    31.6800    9.79347  101.74876    24.6544 1.5534e+00     65.333     1.0025 0.0000e+00
     64.000     8.0934    31.6783    9.80186  101.83493    24.6529 1.5545e+00     64.193     0.9693 0.0000e+00
     63.000     8.0964    31.6782    9.80686  101.88731    24.6528 1.5554e+00     63.241     0.9409 0.0000e+00
     62.000     8.0978    31.6737    9.80537  101.87390    24.6488 1.5567e+00     62.315     0.9419 0.0000e+00
     61.000     8.0990    31.6724    9.80474  101.86721    24.6476 1.5581e+00     61.440     0.9532 0.0000e+00
     60.000     8.1001    31.6709    9.80128  101.83306    24.6462 1.5597e+00     60.485     0.9455 0.0000e+00
     59.000     8.1004    31.6694    9.79894  101.81748    24.6449 1.5616e+00     59.647     0.9258 0.0000e+00
     58.000     8.1011    31.6690    9.79830  101.81889    24.6445 1.5639e+00     58.625     0.9128 0.0000e+00
     57.000     8.1032    31.6683    9.79407  101.78407    24.6438 1.5665e+00     57.714     0.8678 0.0000e+00
     56.000     8.1016    31.6656    9.80726  101.92758    24.6415 1.5618e+00     56.652     0.8286 0.0000e+00
     55.000     8.1023    31.6674    9.80367  101.88980    24.6430 1.5738e+00     55.656     0.8815 0.0000e+00
     54.000     8.1034    31.6662    9.80217  101.87993    24.6420 1.5770e+00     54.610     0.9298 0.0000e+00
     53.000     8.1036    31.6650    9.80008  101.86177    24.6409 1.5838e+00     53.484     0.9170 0.0000e+00
     52.000     8.1070    31.6645    9.79600  101.82224    24.6405 1.5890e+00     52.370     0.8920 0.0000e+00
     51.000     8.1140    31.6618    9.79333  101.79472    24.6380 1.5949e+00     51.357     0.8876 0.0000e+00
     50.000     8.1185    31.6566    9.79630  101.83425    24.6329 1.6025e+00     50.417     0.8415 0.0000e+00
     49.000     8.1216    31.6534    9.79427  101.83358    24.6298 1.6115e+00     49.536     0.8344 0.0000e+00
     48.000     8.1221    31.6504    9.79264  101.83673    24.6269 1.6211e+00     48.493     0.8232 0.0000e+00
     47.000     8.1246    31.6500    9.79455  101.87292    24.6265 1.6340e+00     47.473     0.8242 0.0000e+00
     46.000     8.1268    31.6478    9.79922  101.95713    24.6243 1.6485e+00     46.294     0.8235 0.0000e+00
     45.000     8.1284    31.6463    9.80016  101.98061    24.6229 1.6648e+00     45.144     0.8541 0.0000e+00
     44.000     8.1287    31.6454    9.79700  101.95896    24.6220 1.6828e+00     44.096     0.8302 0.0000e+00
     43.000     8.1304    31.6451    9.79551  101.95843    24.6217 1.7046e+00     43.187     0.8230 0.0000e+00
     42.000     8.1370    31.6444    9.80296  102.05323    24.6210 1.7301e+00     42.235     0.8093 0.0000e+00
     41.000     8.1469    31.6421    9.80720  102.10515    24.6185 1.7592e+00     41.343     0.8041 0.0000e+00
     40.000     8.1555    31.6378    9.80669  102.10098    24.6142 1.7933e+00     40.495     0.7746 0.0000e+00
     39.000     8.1564    31.6305    9.80630  102.09412    24.6069 1.8398e+00     39.670     0.7598 0.0000e+00
     38.000     8.1653    31.6266    9.81388  102.16580    24.6031 1.8809e+00     38.816     0.8133 0.0000e+00
     37.000     8.1824    31.6242    9.80971  102.12573    24.6007 1.9346e+00     37.945     0.7836 0.0000e+00
     36.000     8.1879    31.6124    9.81533  102.18725    24.5888 2.0020e+00     36.971     0.7568 0.0000e+00
     35.000     8.1972    31.6050    9.81260  102.16468    24.5815 2.0800e+00     35.885     0.7649 0.0000e+00
     34.000     8.2140    31.5934    9.80934  102.13058    24.5701 2.1730e+00     34.716     0.7724 0.0000e+00
     33.000     8.2140    31.5868    9.81161  102.15251    24.5635 2.2833e+00     33.522     0.7753 0.0000e+00
     32.000     8.2180    31.5850    9.81266  102.17675    24.5618 2.4176e+00     32.351     0.7724 0.0000e+00
     31.000     8.2171    31.5851    9.80663  102.12572    24.5618 2.5762e+00     30.972     0.7790 0.0000e+00
     30.000     8.2255    31.5823    9.81035  102.16469    24.5591 2.7567e+00     30.285     0.7507 0.0000e+00
     29.000     8.2284    31.5770    9.80929  102.15429    24.5540 2.9779e+00     29.390     0.7519 0.0000e+00
     28.000     8.2307    31.5749    9.80991  102.15988    24.5520 3.2418e+00     28.358     0.7569 0.0000e+00
     27.000     8.2318    31.5734    9.80918  102.15818    24.5506 3.5604e+00     27.240     0.7719 0.0000e+00
     26.000     8.2315    31.5740    9.80465  102.11756    24.5511 3.9260e+00     26.123     0.7683 0.0000e+00
     25.000     8.2348    31.5719    9.80874  102.16697    24.5491 4.3229e+00     25.043     0.7663 0.0000e+00
     24.000     8.2354    31.5713    9.80924  102.18817    24.5484 4.7918e+00     23.769     0.7783 0.0000e+00
     23.000     8.2378    31.5707    9.81421  102.25195    24.5479 5.3598e+00     22.928     0.7491 0.0000e+00
     22.000     8.2397    31.5686    9.81118  102.22442    24.5459 6.0266e+00     22.099     0.7544 0.0000e+00
     21.000     8.2419    31.5661    9.81493  102.26879    24.5436 6.7915e+00     21.200     0.7674 0.0000e+00
     20.000     8.2427    31.5640    9.81245  102.25375    24.5417 7.6919e+00     20.117     0.8025 0.0000e+00
     19.000     8.2453    31.5634    9.81244  102.25632    24.5411 8.7758e+00     19.259     0.7553 0.0000e+00
     18.000     8.2530    31.5587    9.82484  102.38998    24.5368 1.0203e+01     18.160     0.7877 0.0000e+00
     17.000     8.2574    31.5543    9.81337  102.31473    24.5323 1.1662e+01     17.231     0.7727 0.0000e+00
     16.000     8.2621    31.5504    9.81395  102.38597    24.5285 1.3564e+01     16.133     0.7642 0.0000e+00
     15.000     8.2675    31.5470    9.80920  102.40672    24.5254 1.5685e+01     15.037     0.7640 0.0000e+00
     14.000     8.2705    31.5420    9.80318  102.42286    24.5207 1.8530e+01     13.921     0.8074 0.0000e+00
     13.000     8.2725    31.5405    9.79598  102.45952    24.5192 2.1736e+01     12.912     0.7934 0.0000e+00
     12.000     8.2897    31.5395    9.78710  102.59528    24.5181 2.5677e+01     11.834     0.7854 0.0000e+00
     11.000     8.3050    31.5303    9.77365  102.61549    24.5086 3.0358e+01     10.894     0.7816 0.0000e+00
     10.000     8.3307    31.5193    9.75937  102.68165    24.4976 3.6532e+01      9.843     0.7767 0.0000e+00
      9.000     8.3561    31.5037    9.67695  101.77423    24.4822 4.3538e+01      8.923     0.7799 0.0000e+00
      8.000     8.3804    31.4809   10.68057  100.50646    24.4601 5.2836e+01      7.890     0.7738 0.0000e+00
      7.000     8.4034    31.4681   11.11464   99.44773    24.4476 6.5188e+01      7.079     0.8029 0.0000e+00
      6.000     8.4300    31.4456   11.21651   98.80021    24.4260 7.8283e+01      6.118     0.8227 0.0000e+00
      5.000     8.4815    31.4271   11.25872   98.58823    24.4082 9.8897e+01      5.233     0.8697 0.0000e+00
      4.000     8.5823    31.3865   11.24902   98.45595    24.3688 1.2662e+02      4.262     0.8830 0.0000e+00
      3.000     8.6603    31.3176   11.30816   98.36108    24.3020 1.6115e+02      3.433     0.8875 0.0000e+00
      2.000     8.7494    31.2514   11.34643   98.28199    24.2376 1.8549e+02      2.601     0.9269 0.0000e+00
      1.000     8.8243    31.1797   11.32447   98.18451    24.1676 4.7284e+02      1.843     0.7255 0.0000e+00
