* Sea-Bird SBE19plus Data File:
* FileName = C:\data\otf\2007\ctd-07051.hex
* Software Version 1.55
* Temperature SN =  5061
* Conductivity SN =  5061
* System UpLoad Time = Aug 15 2007 16:10:53
* ds
* SeacatPlus V 1.6a  SERIAL NO. 5061    15 Aug 2007  15:31:53
* vbatt = 10.9, vlith =  8.7, ioper =  61.6 ma, ipump =  57.5 ma, 
* iext01 =  95.2 ma
* iext23 =  58.1 ma
* 
* status = not logging
* number of scans to average = 1
* samples = 153039, free = 288466, casts = 154
* mode = profile, minimum cond freq = 3000, pump delay = 60 sec
* autorun = no, ignore magnetic switch = no
* battery type = alkaline, battery cutoff =  7.3 volts
* pressure sensor = strain gauge, range = 870.0
* SBE 38 = no, Gas Tension Device = no
* Ext Volt 0 = yes, Ext Volt 1 = yes, Ext Volt 2 = yes, Ext Volt 3 = yes
* echo commands = yes
* output format = raw HEX
* S>
* 
* SeacatPlus V 1.6a  SERIAL NO. 5061    15 Aug 2007  15:32:18
* temperature:  05-oct-06
*     TA0 = 1.254184e-03
*     TA1 = 2.596730e-04
*     TA2 = 5.165612e-07
*     TA3 = 1.318931e-07
*     TOFFSET = 0.000000e+00
* conductivity:  05-oct-06
*     G = -9.978144e-01
*     H = 1.555200e-01
*     I = -4.839108e-04
*     J = 6.121100e-05
*     CF0 = 2.539936e+03
*     CPCOR = -9.570000e-08
*     CTCOR = 3.250000e-06
*     CSLOPE = 1.000000e+00
* pressure S/N = 2362539, range = 870 psia:  24-aug-06
*     PA0 = 2.171091e-01
*     PA1 = 2.647085e-03
*     PA2 = 1.419397e-11
*     PTCA0 = 5.242437e+05
*     PTCA1 = 7.545345e+00
*     PTCA2 = -1.835354e-01
*     PTCB0 = 2.537125e+01
*     PTCB1 = -1.750000e-03
*     PTCB2 = 0.000000e+00
*     PTEMPA0 = -5.753989e+01
*     PTEMPA1 = 5.235813e+01
*     PTEMPA2 = -4.015521e-02
*     POFFSET = 0.000000e+00
* volt 0: offset = -4.682842e-02, slope = 1.249147e+00
* volt 1: offset = -4.695158e-02, slope = 1.248145e+00
* volt 2: offset = -4.685263e-02, slope = 1.248783e+00
* volt 3: offset = -4.690316e-02, slope = 1.249508e+00
*     EXTFREQSF = 1.000002e+00
* dh
* cast  51 10 Jul 2007 12:19:42 samples 43243 to 43425, avg = 4, stop = mag switch
* S> 
# nquan = 10
# nvalues = 89                          
# units = specified
# name 0 = depSM: Depth [salt water, m]
# name 1 = tv290C: Temperature [ITS-90, deg C]
# name 2 = sal00: Salinity [PSU]
# name 3 = sbeox0Mg/L: Oxygen, SBE 43 [mg/l]
# name 4 = sbeox0PS: Oxygen, SBE 43 [% saturation]
# name 5 = sigma-t00: Density [sigma-t, Kg/m^3 ]
# name 6 = par: PAR/Irradiance, Biospherical/Licor
# name 7 = prdM: Pressure, Strain Gauge [db]
# name 8 = flECO-AFL: Fluorescence, Wetlab ECO-AFL/FL [mg/m^3]
# name 9 = flag: flag
# span 0 =      1.000,     46.000       
# span 1 =     8.2066,     8.2243       
# span 2 =    31.7243,    31.8137       
# span 3 =    8.90343,    9.90122       
# span 4 =   92.77121,  103.15584       
# span 5 =    24.6697,    24.7395       
# span 6 = 1.8446e+00, 1.5358e+02       
# span 7 =      2.022,     45.483       
# span 8 =     1.1815,     2.2544       
# span 9 = 0.0000e+00, 0.0000e+00       
# interval = meters: 1                  
# start_time = Jul 10 2007 12:19:42
# bad_flag = -9.990e-29
# sensor 0 = Frequency 0  temperature, 5061, 05-Oct-06
# sensor 1 = Frequency 1  conductivity, 5061, 05-Oct-06, cpcor = -9.5700e-08
# sensor 2 = Pressure Number
# sensor 3 = Extrnl Volt  0  irradiance (PAR), primary, 4751, 08/10/06
# sensor 4 = Extrnl Volt  1  Oxygen, SBE, primary, 1081, 10/24/06
# sensor 5 = Extrnl Volt  2  WET Labs, ECO_AFL
# sensor 6 = Extrnl Volt  3  userpoly 0, 0627, 10/11/06
# datcnv_date = Oct 15 2007 14:49:45, 5.37e
# datcnv_in = I:\bob d\OTF_GEM\2007\ctd-07051.hex I:\Willette\OTF\CTD\5061.con
# datcnv_skipover = 0
# filter_date = Oct 15 2007 15:02:24, 5.37e
# filter_in = I:\Willette\OTF\CTD\2007\CTD Data\ctd-07051.cnv
# filter_low_pass_tc_A = 1.000
# filter_low_pass_tc_B = 0.150
# filter_low_pass_A_vars = prdM
# filter_low_pass_B_vars =
# loopedit_date = Oct 15 2007 15:06:46, 5.37e
# loopedit_in = I:\Willette\OTF\CTD\2007\CTD Data\ctd-07051.cnv
# loopedit_minVelocity = 0.250                                                                                            
# loopedit_surfaceSoak: minDepth = 5.0, maxDepth = 20, useDeckPress = 1                                                   
# loopedit_excl_bad_scans = yes
# alignctd_date = Oct 15 2007 15:14:15, 5.37e
# alignctd_in = I:\Willette\OTF\CTD\2007\CTD Data\ctd-07051.cnv
# alignctd_adv = tv290C 0.500, sbeox0Mg/L 4.000, sbeox0PS 4.000                                                                                                                                                                      
# binavg_date = Oct 15 2007 15:18:43, 5.37e
# binavg_in = I:\Willette\OTF\CTD\2007\CTD Data\ctd-07051.cnv
# binavg_bintype = meters
# binavg_binsize = 1
# binavg_excl_bad_scans = yes
# binavg_skipover = 0
# binavg_surface_bin = no, min = 0.000, max = 0.000, value = 0.000
# file_type = ascii
*END*
      3.000     8.2199    31.8137    8.90343   92.77121    24.7395 8.7292e+01      4.047     1.1929 0.0000e+00
      4.000     8.2113    31.7269    9.08271   94.64405    24.6697 9.1424e+01      5.100     1.2336 0.0000e+00
      5.000     8.2122    31.7340    9.04410   94.23724    24.6781 8.1606e+01      5.682     1.3012 0.0000e+00
      6.000     8.2141    31.7386    9.04953   94.29418    24.6828 7.0384e+01      6.327     1.3086 0.0000e+00
      7.000     8.2128    31.7450    9.08120   94.62141    24.6880 6.2287e+01      7.159     1.3032 0.0000e+00
      8.000     8.2162    31.7361    9.16274   95.46691    24.6806 5.6104e+01      8.098     1.4021 0.0000e+00
      9.000     8.2243    31.7365    9.29241   96.81801    24.6812 4.9053e+01      8.749     1.3958 0.0000e+00
     10.000     8.2181    31.7436    9.46673   98.63536    24.6856 4.2555e+01      9.971     1.3412 0.0000e+00
     11.000     8.2155    31.7382    9.56791   99.69098    24.6817 3.7688e+01     11.318     1.2639 0.0000e+00
     12.000     8.2138    31.7409    9.62564  100.29411    24.6842 3.2886e+01     12.552     1.2663 0.0000e+00
     13.000     8.2144    31.7339    9.65471  100.59789    24.6789 2.8974e+01     13.594     1.2704 0.0000e+00
     14.000     8.2122    31.7355    9.67475  100.80685    24.6802 2.5529e+01     14.686     1.2575 0.0000e+00
     15.000     8.2122    31.7333    9.68953  100.96107    24.6786 2.2671e+01     15.671     1.2279 0.0000e+00
     16.000 -9.990e-29 -9.990e-29 -9.990e-29 -9.990e-29 -9.990e-29 -9.990e-29 -9.990e-29 -9.990e-29 -9.990e-29
     17.000     8.2111    31.7351    9.71384  101.21454    24.6802 1.7637e+01     17.555     1.2404 0.0000e+00
     18.000 -9.990e-29 -9.990e-29 -9.990e-29 -9.990e-29 -9.990e-29 -9.990e-29 -9.990e-29 -9.990e-29 -9.990e-29
     19.000     8.2113    31.7306    9.72819  101.36381    24.6768 1.4434e+01     19.020     1.2633 0.0000e+00
     20.000     8.2088    31.7361    9.73863  101.47347    24.6812 1.2042e+01     20.427     1.2030 0.0000e+00
     21.000     8.2096    31.7243    9.73106  101.39459    24.6718 1.0864e+01     21.288     1.2331 0.0000e+00
     22.000     8.2098    31.7275    9.73641  101.45035    24.6746 9.6238e+00     22.065     1.2555 0.0000e+00
     23.000     8.2107    31.7274    9.74746  101.56522    24.6745 8.4974e+00     23.315     1.4851 0.0000e+00
     24.000     8.2108    31.7275    9.75594  101.65344    24.6746 7.7383e+00     23.989     1.2684 0.0000e+00
     25.000     8.2112    31.7270    9.76155  101.71163    24.6741 6.8973e+00     24.928     1.2337 0.0000e+00
     26.000     8.2119    31.7270    9.77477  101.84814    24.6740 6.2011e+00     26.190     1.2767 0.0000e+00
     27.000     8.2120    31.7267    9.77731  101.87605    24.6737 5.6646e+00     26.824     1.2576 0.0000e+00
     28.000     8.2121    31.7263    9.78183  101.92344    24.6733 5.0850e+00     27.828     1.1815 0.0000e+00
     29.000     8.2125    31.7263    9.79027  102.01101    24.6733 4.6363e+00     29.013     1.2738 0.0000e+00
     30.000     8.2123    31.7261    9.79346  102.04573    24.6731 4.2310e+00     29.949     1.2888 0.0000e+00
     31.000     8.2125    31.7260    9.79574  102.06907    24.6730 3.8944e+00     30.962     1.2635 0.0000e+00
     32.000     8.2124    31.7261    9.80134  102.12722    24.6731 3.5819e+00     31.971     1.2845 0.0000e+00
     33.000     8.2126    31.7260    9.80500  102.16878    24.6730 3.3027e+00     33.596     1.2688 0.0000e+00
     34.000     8.2126    31.7261    9.80308  102.14548    24.6731 3.1082e+00     34.088     1.2792 0.0000e+00
     35.000     8.2127    31.7260    9.80139  102.12855    24.6730 2.8872e+00     35.263     1.2084 0.0000e+00
     36.000     8.2126    31.7259    9.79851  102.09882    24.6729 2.7235e+00     36.304     1.2704 0.0000e+00
     37.000     8.2127    31.7258    9.80125  102.12786    24.6728 2.5774e+00     37.144     1.3339 0.0000e+00
     38.000     8.2116    31.7258    9.80756  102.19420    24.6728 2.4352e+00     38.143     1.2719 0.0000e+00
     39.000     8.2128    31.7244    9.85363  102.67200    24.6717 2.3293e+00     39.021     1.2106 0.0000e+00
     40.000     8.2125    31.7267    9.84486  102.58281    24.6736 2.2212e+00     39.986     1.2463 0.0000e+00
     41.000     8.2129    31.7258    9.85580  102.69622    24.6728 2.1488e+00     41.064     1.2441 0.0000e+00
     42.000     8.2129    31.7261    9.85331  102.67051    24.6730 2.0673e+00     41.852     1.2471 0.0000e+00
     43.000 -9.990e-29 -9.990e-29 -9.990e-29 -9.990e-29 -9.990e-29 -9.990e-29 -9.990e-29 -9.990e-29 -9.990e-29
     44.000     8.2132    31.7262    9.85790  102.71836    24.6731 1.9352e+00     43.642     1.2167 0.0000e+00
     45.000     8.2134    31.7259    9.86346  102.77454    24.6728 1.8976e+00     44.501     1.4045 0.0000e+00
     46.000     8.2136    31.7262    9.87238  102.86788    24.6730 1.8446e+00     45.483     1.3077 0.0000e+00
     45.000     8.2131    31.7262    9.87371  102.87945    24.6730 1.8940e+00     44.630     1.3264 0.0000e+00
     44.000     8.2132    31.7260    9.87349  102.87844    24.6729 1.9442e+00     43.851     1.3343 0.0000e+00
     43.000     8.2127    31.7265    9.86981  102.84054    24.6734 1.9965e+00     42.934     1.2661 0.0000e+00
     42.000     8.2138    31.7257    9.86715  102.81117    24.6727 2.0657e+00     42.091     2.0206 0.0000e+00
     41.000     8.2136    31.7258    9.87372  102.87903    24.6727 2.1423e+00     41.082     1.9774 0.0000e+00
     40.000     8.2133    31.7258    9.87955  102.94149    24.6727 2.2304e+00     40.182     1.8841 0.0000e+00
     39.000     8.2126    31.7257    9.88470  102.99386    24.6726 2.3308e+00     39.225     1.8813 0.0000e+00
     38.000     8.2116    31.7263    9.88582  103.00631    24.6731 2.4429e+00     38.497     1.8621 0.0000e+00
     37.000     8.2129    31.7258    9.88270  102.97283    24.6731 2.5860e+00     36.789     2.1507 0.0000e+00
     36.000     8.2122    31.7265    9.88476  102.99520    24.6735 2.7203e+00     36.553     2.1009 0.0000e+00
     35.000     8.2136    31.7256    9.88567  103.00347    24.6728 2.9151e+00     34.974     2.1537 0.0000e+00
     34.000     8.2123    31.7256    9.88978  103.04628    24.6727 3.1025e+00     34.476     2.1682 0.0000e+00
     33.000     8.2122    31.7264    9.88321  102.97640    24.6735 3.3348e+00     32.672     1.8779 0.0000e+00
     32.000     8.2119    31.7260    9.88579  103.00303    24.6730 3.5919e+00     32.467     2.2544 0.0000e+00
     31.000     8.2123    31.7263    9.88875  103.03416    24.6733 3.9079e+00     31.266     2.1129 0.0000e+00
     30.000     8.2123    31.7259    9.89476  103.09480    24.6730 4.2803e+00     30.251     2.0002 0.0000e+00
     29.000     8.2121    31.7263    9.89025  103.04889    24.6732 4.6645e+00     29.194     1.9829 0.0000e+00
     28.000     8.2123    31.7257    9.88537  102.99607    24.6727 5.1234e+00     28.320     1.9572 0.0000e+00
     27.000     8.2120    31.7259    9.88266  102.96852    24.6729 5.6519e+00     27.319     1.9006 0.0000e+00
     26.000     8.2117    31.7260    9.88633  103.00546    24.6731 6.2856e+00     26.312     2.0520 0.0000e+00
     25.000     8.2115    31.7260    9.89515  103.09636    24.6731 7.0373e+00     25.173     2.0889 0.0000e+00
     24.000     8.2107    31.7264    9.89761  103.11972    24.6734 7.8427e+00     24.199     2.0442 0.0000e+00
     23.000     8.2112    31.7258    9.89915  103.13660    24.6731 8.8035e+00     23.101     1.8841 0.0000e+00
     22.000     8.2101    31.7268    9.89946  103.13700    24.6739 9.7465e+00     22.110     1.8008 0.0000e+00
     21.000     8.2103    31.7262    9.89256  103.06599    24.6735 1.1090e+01     21.187     1.8498 0.0000e+00
     20.000     8.2101    31.7261    9.89484  103.08922    24.6733 1.2557e+01     20.246     1.8456 0.0000e+00
     19.000     8.2103    31.7264    9.89549  103.09615    24.6737 1.4185e+01     18.986     1.8805 0.0000e+00
     18.000     8.2098    31.7261    9.89947  103.13684    24.6734 1.5971e+01     18.143     1.6858 0.0000e+00
     17.000     8.2091    31.7261    9.90122  103.15584    24.6734 1.8049e+01     17.228     1.7952 0.0000e+00
     16.000     8.2092    31.7268    9.89753  103.11628    24.6740 2.0530e+01     15.950     1.7706 0.0000e+00
     15.000     8.2083    31.7264    9.89644  103.10543    24.6738 2.3670e+01     15.064     1.8176 0.0000e+00
     14.000     8.2075    31.7269    9.89375  103.07709    24.6744 2.6922e+01     14.129     1.8563 0.0000e+00
     13.000     8.2075    31.7272    9.89144  103.05510    24.6746 3.0600e+01     13.113     1.8567 0.0000e+00
     12.000     8.2072    31.7275    9.89140  103.06128    24.6749 3.4519e+01     12.196     1.8184 0.0000e+00
     11.000     8.2070    31.7276    9.89053  103.05849    24.6750 3.9118e+01     11.215     1.8857 0.0000e+00
     10.000     8.2069    31.7280    9.88627  102.95192    24.6754 4.4406e+01     10.204     1.9458 0.0000e+00
      9.000     8.2067    31.7285    9.79649  102.07692    24.6757 5.0850e+01      9.153     1.8530 0.0000e+00
      8.000     8.2072    31.7288 -9.990e-29 -9.990e-29    24.6760 5.8495e+01      7.957     1.3865 0.0000e+00
      7.000     8.2066    31.7287 -9.990e-29 -9.990e-29    24.6760 6.6642e+01      7.240     1.4152 0.0000e+00
      6.000     8.2068    31.7284 -9.990e-29 -9.990e-29    24.6757 7.4998e+01      6.192     1.3687 0.0000e+00
      5.000     8.2067    31.7285 -9.990e-29 -9.990e-29    24.6758 8.4174e+01      5.266     1.3875 0.0000e+00
      4.000     8.2077    31.7281 -9.990e-29 -9.990e-29    24.6755 9.7700e+01      4.352     1.4678 0.0000e+00
      3.000     8.2123    31.7289 -9.990e-29 -9.990e-29    24.6762 1.0150e+02      3.419     1.3986 0.0000e+00
      2.000     8.2140    31.7293 -9.990e-29 -9.990e-29    24.6759 1.2203e+02      2.838     1.2821 0.0000e+00
      1.000     8.2193    31.7302 -9.990e-29 -9.990e-29    24.6762 1.5358e+02      2.022     1.1877 0.0000e+00
