* Sea-Bird SBE19plus Data File:
* FileName = C:\data\otf\2007\ctd-07062.hex
* Software Version 1.55
* Temperature SN =  5061
* Conductivity SN =  5061
* System UpLoad Time = Aug 15 2007 16:14:19
* ds
* SeacatPlus V 1.6a  SERIAL NO. 5061    15 Aug 2007  15:31:53
* vbatt = 10.9, vlith =  8.7, ioper =  61.6 ma, ipump =  57.5 ma, 
* iext01 =  95.2 ma
* iext23 =  58.1 ma
* 
* status = not logging
* number of scans to average = 1
* samples = 153039, free = 288466, casts = 154
* mode = profile, minimum cond freq = 3000, pump delay = 60 sec
* autorun = no, ignore magnetic switch = no
* battery type = alkaline, battery cutoff =  7.3 volts
* pressure sensor = strain gauge, range = 870.0
* SBE 38 = no, Gas Tension Device = no
* Ext Volt 0 = yes, Ext Volt 1 = yes, Ext Volt 2 = yes, Ext Volt 3 = yes
* echo commands = yes
* output format = raw HEX
* S>
* 
* SeacatPlus V 1.6a  SERIAL NO. 5061    15 Aug 2007  15:32:18
* temperature:  05-oct-06
*     TA0 = 1.254184e-03
*     TA1 = 2.596730e-04
*     TA2 = 5.165612e-07
*     TA3 = 1.318931e-07
*     TOFFSET = 0.000000e+00
* conductivity:  05-oct-06
*     G = -9.978144e-01
*     H = 1.555200e-01
*     I = -4.839108e-04
*     J = 6.121100e-05
*     CF0 = 2.539936e+03
*     CPCOR = -9.570000e-08
*     CTCOR = 3.250000e-06
*     CSLOPE = 1.000000e+00
* pressure S/N = 2362539, range = 870 psia:  24-aug-06
*     PA0 = 2.171091e-01
*     PA1 = 2.647085e-03
*     PA2 = 1.419397e-11
*     PTCA0 = 5.242437e+05
*     PTCA1 = 7.545345e+00
*     PTCA2 = -1.835354e-01
*     PTCB0 = 2.537125e+01
*     PTCB1 = -1.750000e-03
*     PTCB2 = 0.000000e+00
*     PTEMPA0 = -5.753989e+01
*     PTEMPA1 = 5.235813e+01
*     PTEMPA2 = -4.015521e-02
*     POFFSET = 0.000000e+00
* volt 0: offset = -4.682842e-02, slope = 1.249147e+00
* volt 1: offset = -4.695158e-02, slope = 1.248145e+00
* volt 2: offset = -4.685263e-02, slope = 1.248783e+00
* volt 3: offset = -4.690316e-02, slope = 1.249508e+00
*     EXTFREQSF = 1.000002e+00
* dh
* cast  62 12 Jul 2007 11:09:34 samples 46269 to 46538, avg = 4, stop = mag switch
* S> 
# nquan = 10
# nvalues = 128                         
# units = specified
# name 0 = depSM: Depth [salt water, m]
# name 1 = tv290C: Temperature [ITS-90, deg C]
# name 2 = sal00: Salinity [PSU]
# name 3 = sbeox0Mg/L: Oxygen, SBE 43 [mg/l]
# name 4 = sbeox0PS: Oxygen, SBE 43 [% saturation]
# name 5 = sigma-t00: Density [sigma-t, Kg/m^3 ]
# name 6 = par: PAR/Irradiance, Biospherical/Licor
# name 7 = prdM: Pressure, Strain Gauge [db]
# name 8 = flECO-AFL: Fluorescence, Wetlab ECO-AFL/FL [mg/m^3]
# name 9 = flag: flag
# span 0 =      1.000,     66.000       
# span 1 =     8.1792,     8.8647       
# span 2 =    31.1769,    31.5661       
# span 3 =    8.93826,   11.46757       
# span 4 =   93.70954,  102.41306       
# span 5 =    24.1544,    24.5524       
# span 6 = 1.5499e+00, 3.0240e+02       
# span 7 =      1.716,     65.594       
# span 8 =     0.4775,     0.6833       
# span 9 = 0.0000e+00, 0.0000e+00       
# interval = meters: 1                  
# start_time = Jul 12 2007 11:09:34
# bad_flag = -9.990e-29
# sensor 0 = Frequency 0  temperature, 5061, 05-Oct-06
# sensor 1 = Frequency 1  conductivity, 5061, 05-Oct-06, cpcor = -9.5700e-08
# sensor 2 = Pressure Number
# sensor 3 = Extrnl Volt  0  irradiance (PAR), primary, 4751, 08/10/06
# sensor 4 = Extrnl Volt  1  Oxygen, SBE, primary, 1081, 10/24/06
# sensor 5 = Extrnl Volt  2  WET Labs, ECO_AFL
# sensor 6 = Extrnl Volt  3  userpoly 0, 0627, 10/11/06
# datcnv_date = Oct 15 2007 14:49:45, 5.37e
# datcnv_in = I:\bob d\OTF_GEM\2007\ctd-07062.hex I:\Willette\OTF\CTD\5061.con
# datcnv_skipover = 0
# filter_date = Oct 15 2007 15:02:25, 5.37e
# filter_in = I:\Willette\OTF\CTD\2007\CTD Data\ctd-07062.cnv
# filter_low_pass_tc_A = 1.000
# filter_low_pass_tc_B = 0.150
# filter_low_pass_A_vars = prdM
# filter_low_pass_B_vars =
# loopedit_date = Oct 15 2007 15:06:47, 5.37e
# loopedit_in = I:\Willette\OTF\CTD\2007\CTD Data\ctd-07062.cnv
# loopedit_minVelocity = 0.250                                                                                            
# loopedit_surfaceSoak: minDepth = 5.0, maxDepth = 20, useDeckPress = 1                                                   
# loopedit_excl_bad_scans = yes
# alignctd_date = Oct 15 2007 15:14:15, 5.37e
# alignctd_in = I:\Willette\OTF\CTD\2007\CTD Data\ctd-07062.cnv
# alignctd_adv = tv290C 0.500, sbeox0Mg/L 4.000, sbeox0PS 4.000                                                                                                                                                                      
# binavg_date = Oct 15 2007 15:18:44, 5.37e
# binavg_in = I:\Willette\OTF\CTD\2007\CTD Data\ctd-07062.cnv
# binavg_bintype = meters
# binavg_binsize = 1
# binavg_excl_bad_scans = yes
# binavg_skipover = 0
# binavg_surface_bin = no, min = 0.000, max = 0.000, value = 0.000
# file_type = ascii
*END*
      4.000     8.7736    31.1773    8.94480   93.79644    24.1544 1.2216e+02      4.626     0.5650 0.0000e+00
      5.000     8.7547    31.1972    8.96889   94.03467    24.1741 1.0511e+02      5.364     0.5778 0.0000e+00
      6.000     8.7272    31.2268    8.93826   93.70954    24.2003 8.7868e+01      6.233     0.5761 0.0000e+00
      7.000     8.7075    31.2503    9.05570   94.92243    24.2226 7.2144e+01      7.222     0.6060 0.0000e+00
      8.000     8.6812    31.2769    9.13078   95.68673    24.2472 5.9048e+01      8.115     0.5921 0.0000e+00
      9.000     8.6373    31.2931    9.04629   94.79302    24.2635 4.8165e+01      9.300     0.6229 0.0000e+00
     10.000     8.6328    31.3194    9.07622   95.07165    24.2894 3.9974e+01     10.212     0.6078 0.0000e+00
     11.000     8.6229    31.3384    9.20594   96.39314    24.3074 3.2835e+01     11.338     0.5902 0.0000e+00
     12.000     8.6130    31.3365    9.37271   98.11527    24.3069 2.7804e+01     12.256     0.5772 0.0000e+00
     13.000     8.6034    31.3504    9.46556   99.07715    24.3195 2.3116e+01     13.256     0.5631 0.0000e+00
     14.000     8.5900    31.3524    9.52373   99.68357    24.3223 1.9402e+01     14.437     0.5815 0.0000e+00
     15.000     8.5864    31.3795    9.55511  100.01040    24.3457 1.6334e+01     15.472     0.5853 0.0000e+00
     16.000     8.5871    31.3605    9.58688  100.33978    24.3315 1.3791e+01     16.725     0.5810 0.0000e+00
     17.000     8.5781    31.3592    9.59476  100.42667    24.3311 1.1772e+01     17.588     0.5568 0.0000e+00
     18.000     8.5668    31.3560    9.60147  100.49841    24.3280 1.0027e+01     18.517     0.5409 0.0000e+00
     19.000     8.5587    31.3594    9.61092  100.59575    24.3320 8.6659e+00     19.178     0.6043 0.0000e+00
     20.000     8.5602    31.3737    9.62478  100.73722    24.3447 7.3072e+00     20.184     0.5705 0.0000e+00
     21.000     8.5513    31.3745    9.63694  100.85624    24.3473 6.3603e+00     21.239     0.5782 0.0000e+00
     22.000     8.5341    31.3735    9.64705  100.95938    24.3464 5.5492e+00     22.335     0.5575 0.0000e+00
     23.000     8.5197    31.3641    9.65203  101.00929    24.3411 4.8777e+00     23.442     0.5713 0.0000e+00
     24.000     8.5144    31.3679    9.65540  101.04697    24.3455 4.3503e+00     24.290     0.5996 0.0000e+00
     25.000 -9.990e-29 -9.990e-29 -9.990e-29 -9.990e-29 -9.990e-29 -9.990e-29 -9.990e-29 -9.990e-29 -9.990e-29
     26.000     8.5119    31.3746    9.66670  101.16741    24.3534 3.4649e+00     25.950     0.5213 0.0000e+00
     27.000     8.5123    31.3698    9.67681  101.27310    24.3499 3.1623e+00     26.903     0.5150 0.0000e+00
     28.000     8.5120    31.3671    9.68062  101.30958    24.3480 2.8826e+00     27.865     0.5130 0.0000e+00
     29.000     8.5104    31.3656    9.68468  101.34943    24.3468 2.6499e+00     28.938     0.5019 0.0000e+00
     30.000     8.5115    31.3645    9.69004  101.40730    24.3459 2.4683e+00     29.907     0.4866 0.0000e+00
     31.000     8.5121    31.3666    9.69333  101.40248    24.3477 2.3126e+00     31.017     0.5134 0.0000e+00
     32.000     8.5101    31.3665    9.69646  101.37977    24.3475 2.1841e+00     32.227     0.5098 0.0000e+00
     33.000     8.5067    31.3651    9.69979  101.36786    24.3466 2.0780e+00     33.393     0.5129 0.0000e+00
     34.000     8.5054    31.3646    9.70425  101.38598    24.3466 1.9859e+00     34.417     0.5331 0.0000e+00
     35.000     8.5044    31.3665    9.71604  101.48562    24.3484 1.9151e+00     35.527     0.5321 0.0000e+00
     36.000     8.5058    31.3683    9.72555  101.57569    24.3500 1.8560e+00     36.420     0.5231 0.0000e+00
     37.000     8.5055    31.3704    9.73221  101.64008    24.3516 1.8032e+00     37.458     0.5121 0.0000e+00
     38.000     8.5063    31.3690    9.73064  101.62166    24.3502 1.7621e+00     38.355     0.5193 0.0000e+00
     39.000     8.5042    31.3685    9.72917  101.59424    24.3501 1.7245e+00     39.329     0.5056 0.0000e+00
     40.000     8.5042    31.3662    9.73649  101.66541    24.3482 1.6960e+00     40.339     0.5072 0.0000e+00
     41.000     8.4942    31.3668    9.74353  101.69957    24.3489 1.6712e+00     41.385     0.5013 0.0000e+00
     42.000     8.4787    31.3665    9.74545  101.70519    24.3486 1.6510e+00     42.295     0.5067 0.0000e+00
     43.000     8.4501    31.3752    9.75384  101.78017    24.3579 1.6335e+00     43.356     0.5284 0.0000e+00
     44.000     8.4271    31.3910    9.76403  101.87331    24.3733 1.6199e+00     44.380     0.5295 0.0000e+00
     45.000     8.4116    31.4188    9.77051  101.91432    24.3996 1.6075e+00     45.316     0.5093 0.0000e+00
     46.000     8.3959    31.4346    9.77544  101.88878    24.4146 1.5976e+00     46.376     0.5104 0.0000e+00
     47.000     8.3916    31.4472    9.78034  101.90765    24.4264 1.5897e+00     47.290     0.5154 0.0000e+00
     48.000     8.3883    31.4559    9.78888  101.93405    24.4347 1.5832e+00     48.311     0.5157 0.0000e+00
     49.000     8.3871    31.4601    9.79508  101.95861    24.4388 1.5775e+00     49.191     0.4918 0.0000e+00
     50.000     8.3811    31.4618    9.79907  101.96059    24.4404 1.5728e+00     50.273     0.5176 0.0000e+00
     51.000     8.3758    31.4656    9.80416  101.98878    24.4442 1.5693e+00     51.223     0.5456 0.0000e+00
     52.000     8.3474    31.4685    9.81651  102.10350    24.4472 1.5657e+00     52.517     0.5288 0.0000e+00
     53.000     8.3427    31.4842    9.82275  102.16687    24.4626 1.5629e+00     53.485     0.5525 0.0000e+00
     54.000     8.3326    31.4891    9.82320  102.17180    24.4678 1.5604e+00     54.675     0.5166 0.0000e+00
     55.000     8.3075    31.4990    9.82731  102.21480    24.4772 1.5586e+00     55.648     0.5349 0.0000e+00
     56.000     8.2819    31.5012    9.82734  102.21474    24.4809 1.5574e+00     56.651     0.5416 0.0000e+00
     57.000     8.2588    31.5168    9.83049  102.24773    24.4977 1.5555e+00     57.459     0.5023 0.0000e+00
     58.000     8.2291    31.5220    9.83155  102.25787    24.5048 1.5544e+00     58.471     0.5275 0.0000e+00
     59.000     8.2114    31.5302    9.83142  102.25636    24.5151 1.5540e+00     59.302     0.4988 0.0000e+00
     60.000     8.1958    31.5389    9.83134  102.25576    24.5250 1.5529e+00     60.189     0.4775 0.0000e+00
     61.000     8.1840    31.5495    9.83010  102.24282    24.5364 1.5522e+00     61.191     0.4920 0.0000e+00
     62.000     8.1797    31.5613    9.83694  102.31714    24.5478 1.5514e+00     62.277     0.5206 0.0000e+00
     63.000     8.1792    31.5655    9.83719  102.31872    24.5519 1.5511e+00     63.135     0.5287 0.0000e+00
     64.000     8.1798    31.5660    9.84318  102.38096    24.5524 1.5507e+00     63.942     0.5073 0.0000e+00
     65.000     8.1794    31.5660    9.84593  102.41306    24.5523 1.5502e+00     64.739     0.5534 0.0000e+00
     66.000     8.1797    31.5661    9.83303  102.31974    24.5524 1.5499e+00     65.594     0.5504 0.0000e+00
     65.000     8.1802    31.5654    9.82405  102.38768    24.5517 1.5504e+00     64.921     0.5880 0.0000e+00
     64.000     8.1824    31.5658    9.82197  102.40508    24.5521 1.5510e+00     64.178     0.5524 0.0000e+00
     63.000     8.1834    31.5641    9.81827  102.40443    24.5504 1.5513e+00     63.328     0.5493 0.0000e+00
     62.000     8.1856    31.5627    9.81215  102.37197    24.5491 1.5512e+00     62.394     0.5601 0.0000e+00
     61.000     8.1966    31.5611    9.80382  102.31306    24.5476 1.5517e+00     61.466     0.5826 0.0000e+00
     60.000     8.2052    31.5535    9.79483  102.24428    24.5402 1.5524e+00     60.523     0.5253 0.0000e+00
     59.000     8.2273    31.5474    9.79060  102.20772    24.5339 1.5534e+00     59.452     0.5562 0.0000e+00
     58.000     8.2615    31.5445    9.78459  102.14942    24.5292 1.5542e+00     58.586     0.5327 0.0000e+00
     57.000     8.2919    31.5333    9.78738  102.19796    24.5147 1.5554e+00     57.503     0.5773 0.0000e+00
     56.000     8.3079    31.5230    9.78885  102.23827    24.5029 1.5566e+00     56.583     0.5871 0.0000e+00
     55.000     8.3253    31.5133    9.78153  102.19418    24.4925 1.5584e+00     55.558     0.5702 0.0000e+00
     54.000     8.3407    31.5025    9.77103  102.11844    24.4814 1.5602e+00     54.499     0.5700 0.0000e+00
     53.000     8.3568    31.4931    9.76175  102.06311    24.4719 1.5626e+00     53.513     0.5679 0.0000e+00
     52.000     8.3642    31.4814    9.74677  101.94240    24.4604 1.5652e+00     52.605     0.5173 0.0000e+00
     51.000     8.3661    31.4758    9.74160  101.90997    24.4547 1.5690e+00     51.558     0.5356 0.0000e+00
     50.000     8.3726    31.4753    9.73577  101.86101    24.4541 1.5733e+00     50.477     0.5401 0.0000e+00
     49.000     8.3894    31.4713    9.73277  101.84560    24.4501 1.5783e+00     49.492     0.5305 0.0000e+00
     48.000     8.4081    31.4571    9.72669  101.79532    24.4364 1.5847e+00     48.464     0.5286 0.0000e+00
     47.000     8.4257    31.4382    9.72677  101.80525    24.4186 1.5921e+00     47.385     0.5751 0.0000e+00
     46.000     8.4551    31.4202    9.72523  101.82554    24.4019 1.6015e+00     46.442     0.5587 0.0000e+00
     45.000     8.4777    31.3937    9.72220  101.80574    24.3774 1.6130e+00     45.507     0.5373 0.0000e+00
     44.000     8.4924    31.3668    9.70672  101.64173    24.3523 1.6259e+00     44.309     0.4991 0.0000e+00
     43.000     8.4968    31.3602    9.70852  101.66465    24.3458 1.6430e+00     43.454     0.5521 0.0000e+00
     42.000     8.5075    31.3551    9.70984  101.68008    24.3408 1.6638e+00     42.415     0.5217 0.0000e+00
     41.000     8.5137    31.3486    9.71548  101.74393    24.3342 1.6862e+00     41.358     0.5512 0.0000e+00
     40.000     8.5124    31.3425    9.70618  101.65030    24.3280 1.7154e+00     40.412     0.5521 0.0000e+00
     39.000     8.5318    31.3483    9.71926  101.78980    24.3325 1.7516e+00     39.395     0.5371 0.0000e+00
     38.000     8.5366    31.3469    9.71371  101.73497    24.3293 1.7965e+00     38.397     0.5435 0.0000e+00
     37.000     8.5371    31.3455    9.70487  101.64883    24.3274 1.8487e+00     37.392     0.5539 0.0000e+00
     36.000     8.5374    31.3444    9.71055  101.70334    24.3265 1.9134e+00     36.354     0.5693 0.0000e+00
     35.000     8.5376    31.3506    9.71228  101.71750    24.3313 1.9936e+00     35.274     0.5320 0.0000e+00
     34.000     8.5391    31.3506    9.70069  101.60237    24.3312 2.0887e+00     34.337     0.5373 0.0000e+00
     33.000     8.5401    31.3534    9.70678  101.67090    24.3332 2.1962e+00     33.226     0.5459 0.0000e+00
     32.000     8.5418    31.3543    9.71257  101.74174    24.3338 2.3329e+00     32.363     0.5332 0.0000e+00
     31.000     8.5431    31.3533    9.70508  101.67137    24.3327 2.4968e+00     31.301     0.5108 0.0000e+00
     30.000     8.5463    31.3541    9.69390  101.56359    24.3332 2.6986e+00     30.286     0.5362 0.0000e+00
     29.000     8.5442    31.3536    9.70023  101.63314    24.3324 2.9462e+00     29.379     0.5578 0.0000e+00
     28.000     8.5424    31.3494    9.71226  101.76699    24.3294 3.2389e+00     28.070     0.5204 0.0000e+00
     27.000     8.5453    31.3502    9.71242  101.78075    24.3302 3.5806e+00     27.326     0.5197 0.0000e+00
     26.000     8.5472    31.3521    9.71335  101.80045    24.3313 3.9975e+00     26.271     0.5462 0.0000e+00
     25.000     8.5539    31.3517    9.71012  101.77480    24.3306 4.5210e+00     25.115     0.5473 0.0000e+00
     24.000     8.5563    31.3505    9.69885  101.66776    24.3290 5.1443e+00     24.253     0.5535 0.0000e+00
     23.000     8.5599    31.3507    9.69464  101.62650    24.3286 5.9226e+00     23.234     0.5570 0.0000e+00
     22.000     8.5621    31.3491    9.69201  101.60006    24.3267 6.8114e+00     22.094     0.5638 0.0000e+00
     21.000     8.5665    31.3479    9.68719  101.54671    24.3255 7.9186e+00     21.207     0.5338 0.0000e+00
     20.000     8.5725    31.3456    9.69813  101.67243    24.3229 9.2308e+00     20.184     0.5638 0.0000e+00
     19.000     8.5776    31.3420    9.70163  101.71319    24.3193 1.0771e+01     19.215     0.5607 0.0000e+00
     18.000     8.5815    31.3411    9.70945  101.82801    24.3179 1.2758e+01     18.150     0.5661 0.0000e+00
     17.000     8.5865    31.3398    9.71302  101.87553    24.3163 1.5147e+01     17.169     0.5584 0.0000e+00
     16.000     8.5874    31.3374    9.70859  101.83884    24.3137 1.7897e+01     16.158     0.5648 0.0000e+00
     15.000     8.5866    31.3367    9.70814  101.89290    24.3130 2.1288e+01     15.121     0.5610 0.0000e+00
     14.000     8.5859    31.3379    9.70439  101.88959    24.3140 2.5553e+01     14.165     0.5403 0.0000e+00
     13.000     8.5935    31.3392    9.71213  101.99540    24.3152 3.0410e+01     12.981     0.5396 0.0000e+00
     12.000     8.5971    31.3349    9.70470  101.94640    24.3108 3.6355e+01     12.115     0.5239 0.0000e+00
     11.000     8.6119    31.3337    9.71189  102.07357    24.3092 4.3730e+01     11.083     0.5822 0.0000e+00
     10.000     8.6161    31.3253    9.69701  101.97734    24.3005 5.2716e+01     10.071     0.6265 0.0000e+00
      9.000     8.6209    31.3229    9.70120  102.12024    24.2979 6.3396e+01      9.026     0.6292 0.0000e+00
      8.000     8.6513    31.3204    9.67738  101.74052    24.2953 7.6216e+01      8.094     0.6274 0.0000e+00
      7.000     8.6715    31.2984    9.54525  100.35233    24.2736 9.2027e+01      7.080     0.6351 0.0000e+00
      6.000     8.6824    31.2844   10.92957   99.86948    24.2597 1.1152e+02      6.105     0.6833 0.0000e+00
      5.000     8.6966    31.2750   11.43171  100.31492    24.2505 1.3053e+02      5.058     0.5268 0.0000e+00
      4.000     8.7269    31.2608   11.46757  100.38219    24.2373 1.5633e+02      4.227     0.5828 0.0000e+00
      3.000     8.7659    31.2338 -9.990e-29 -9.990e-29    24.2121 1.8320e+02      3.340     0.5975 0.0000e+00
      2.000     8.7884    31.1891 -9.990e-29 -9.990e-29    24.1710 2.1612e+02      2.418     0.5684 0.0000e+00
      1.000     8.8647    31.1769 -9.990e-29 -9.990e-29    24.1580 3.0240e+02      1.716     0.5776 0.0000e+00
