* Sea-Bird SBE19plus Data File:
* FileName = C:\data\otf\2007\ctd-07030.hex
* Software Version 1.55
* Temperature SN =  5061
* Conductivity SN =  5061
* System UpLoad Time = Aug 15 2007 16:01:29
* ds
* SeacatPlus V 1.6a  SERIAL NO. 5061    15 Aug 2007  15:31:53
* vbatt = 10.9, vlith =  8.7, ioper =  61.6 ma, ipump =  57.5 ma, 
* iext01 =  95.2 ma
* iext23 =  58.1 ma
* 
* status = not logging
* number of scans to average = 1
* samples = 153039, free = 288466, casts = 154
* mode = profile, minimum cond freq = 3000, pump delay = 60 sec
* autorun = no, ignore magnetic switch = no
* battery type = alkaline, battery cutoff =  7.3 volts
* pressure sensor = strain gauge, range = 870.0
* SBE 38 = no, Gas Tension Device = no
* Ext Volt 0 = yes, Ext Volt 1 = yes, Ext Volt 2 = yes, Ext Volt 3 = yes
* echo commands = yes
* output format = raw HEX
* S>
* 
* SeacatPlus V 1.6a  SERIAL NO. 5061    15 Aug 2007  15:32:18
* temperature:  05-oct-06
*     TA0 = 1.254184e-03
*     TA1 = 2.596730e-04
*     TA2 = 5.165612e-07
*     TA3 = 1.318931e-07
*     TOFFSET = 0.000000e+00
* conductivity:  05-oct-06
*     G = -9.978144e-01
*     H = 1.555200e-01
*     I = -4.839108e-04
*     J = 6.121100e-05
*     CF0 = 2.539936e+03
*     CPCOR = -9.570000e-08
*     CTCOR = 3.250000e-06
*     CSLOPE = 1.000000e+00
* pressure S/N = 2362539, range = 870 psia:  24-aug-06
*     PA0 = 2.171091e-01
*     PA1 = 2.647085e-03
*     PA2 = 1.419397e-11
*     PTCA0 = 5.242437e+05
*     PTCA1 = 7.545345e+00
*     PTCA2 = -1.835354e-01
*     PTCB0 = 2.537125e+01
*     PTCB1 = -1.750000e-03
*     PTCB2 = 0.000000e+00
*     PTEMPA0 = -5.753989e+01
*     PTEMPA1 = 5.235813e+01
*     PTEMPA2 = -4.015521e-02
*     POFFSET = 0.000000e+00
* volt 0: offset = -4.682842e-02, slope = 1.249147e+00
* volt 1: offset = -4.695158e-02, slope = 1.248145e+00
* volt 2: offset = -4.685263e-02, slope = 1.248783e+00
* volt 3: offset = -4.690316e-02, slope = 1.249508e+00
*     EXTFREQSF = 1.000002e+00
* dh
* cast  30 07 Jul 2007 11:17:17 samples 33758 to 34080, avg = 4, stop = mag switch
* S> 
# nquan = 10
# nvalues = 174                         
# units = specified
# name 0 = depSM: Depth [salt water, m]
# name 1 = tv290C: Temperature [ITS-90, deg C]
# name 2 = sal00: Salinity [PSU]
# name 3 = sbeox0Mg/L: Oxygen, SBE 43 [mg/l]
# name 4 = sbeox0PS: Oxygen, SBE 43 [% saturation]
# name 5 = sigma-t00: Density [sigma-t, Kg/m^3 ]
# name 6 = par: PAR/Irradiance, Biospherical/Licor
# name 7 = prdM: Pressure, Strain Gauge [db]
# name 8 = flECO-AFL: Fluorescence, Wetlab ECO-AFL/FL [mg/m^3]
# name 9 = flag: flag
# span 0 =      1.000,     89.000       
# span 1 =     7.8663,     8.7634       
# span 2 =    31.2493,    31.5532       
# span 3 =    8.97078,   10.28012       
# span 4 =   93.04680,  108.19205       
# span 5 =    24.2509,    24.5866       
# span 6 = 1.5462e+00, 2.8580e+03       
# span 7 =      2.042,     87.986       
# span 8 =     0.2628,     1.0251       
# span 9 = 0.0000e+00, 0.0000e+00       
# interval = meters: 1                  
# start_time = Jul 07 2007 11:17:17
# bad_flag = -9.990e-29
# sensor 0 = Frequency 0  temperature, 5061, 05-Oct-06
# sensor 1 = Frequency 1  conductivity, 5061, 05-Oct-06, cpcor = -9.5700e-08
# sensor 2 = Pressure Number
# sensor 3 = Extrnl Volt  0  irradiance (PAR), primary, 4751, 08/10/06
# sensor 4 = Extrnl Volt  1  Oxygen, SBE, primary, 1081, 10/24/06
# sensor 5 = Extrnl Volt  2  WET Labs, ECO_AFL
# sensor 6 = Extrnl Volt  3  userpoly 0, 0627, 10/11/06
# datcnv_date = Oct 15 2007 14:49:44, 5.37e
# datcnv_in = I:\bob d\OTF_GEM\2007\ctd-07030.hex I:\Willette\OTF\CTD\5061.con
# datcnv_skipover = 0
# filter_date = Oct 15 2007 15:02:22, 5.37e
# filter_in = I:\Willette\OTF\CTD\2007\CTD Data\ctd-07030.cnv
# filter_low_pass_tc_A = 1.000
# filter_low_pass_tc_B = 0.150
# filter_low_pass_A_vars = prdM
# filter_low_pass_B_vars =
# loopedit_date = Oct 15 2007 15:06:45, 5.37e
# loopedit_in = I:\Willette\OTF\CTD\2007\CTD Data\ctd-07030.cnv
# loopedit_minVelocity = 0.250                                                                                            
# loopedit_surfaceSoak: minDepth = 5.0, maxDepth = 20, useDeckPress = 1                                                   
# loopedit_excl_bad_scans = yes
# alignctd_date = Oct 15 2007 15:14:14, 5.37e
# alignctd_in = I:\Willette\OTF\CTD\2007\CTD Data\ctd-07030.cnv
# alignctd_adv = tv290C 0.500, sbeox0Mg/L 4.000, sbeox0PS 4.000                                                                                                                                                                      
# binavg_date = Oct 15 2007 15:18:42, 5.37e
# binavg_in = I:\Willette\OTF\CTD\2007\CTD Data\ctd-07030.cnv
# binavg_bintype = meters
# binavg_binsize = 1
# binavg_excl_bad_scans = yes
# binavg_skipover = 0
# binavg_surface_bin = no, min = 0.000, max = 0.000, value = 0.000
# file_type = ascii
*END*
      4.000     8.2147    31.3024    8.97078   93.04680    24.3236 6.3425e+02      4.582     0.2828 0.0000e+00
      5.000     8.1988    31.3403    9.02806   93.61721    24.3625 5.1077e+02      5.208     0.3447 0.0000e+00
      6.000     8.1858    31.3740    9.11625   94.51551    24.3963 4.0457e+02      5.914     0.4041 0.0000e+00
      7.000     8.1693    31.3951    9.17718   95.12930    24.4167 3.2941e+02      6.850     0.4608 0.0000e+00
      8.000     8.1566    31.4196    9.25056   95.86274    24.4389 2.6446e+02      7.949     0.5153 0.0000e+00
      9.000     8.1463    31.4144    9.25609   95.90422    24.4368 2.1625e+02      9.076     0.5668 0.0000e+00
     10.000     8.1336    31.4218    9.27395   96.07527    24.4442 1.7839e+02     10.376     0.5951 0.0000e+00
     11.000     8.1225    31.4239    9.32328   96.53351    24.4474 1.5149e+02     11.537     0.6724 0.0000e+00
     12.000     8.1050    31.4109    9.52996   98.61495    24.4382 1.2653e+02     12.687     0.7867 0.0000e+00
     13.000     8.0954    31.4102    9.63322   99.63558    24.4399 1.0746e+02     13.556     0.8128 0.0000e+00
     14.000     8.0822    31.4161    9.69470  100.25912    24.4462 9.0168e+01     14.531     0.7604 0.0000e+00
     15.000     8.0779    31.4150    9.73216  100.63819    24.4470 7.6488e+01     15.407     0.7585 0.0000e+00
     16.000     8.0689    31.4167    9.76488  100.96997    24.4493 6.4065e+01     16.347     0.7364 0.0000e+00
     17.000     8.0542    31.4191    9.77973  101.12336    24.4519 5.4168e+01     17.364     0.7259 0.0000e+00
     18.000     8.0544    31.4121    9.78984  101.22661    24.4479 4.6367e+01     18.263     0.7554 0.0000e+00
     19.000     8.0506    31.4275    9.80193  101.33525    24.4614 3.9458e+01     19.217     0.7200 0.0000e+00
     20.000     8.0452    31.4230    9.81491  101.46375    24.4581 3.3639e+01     20.246     0.6912 0.0000e+00
     21.000     8.0420    31.4276    9.81669  101.47323    24.4626 2.8602e+01     21.201     0.6773 0.0000e+00
     22.000     8.0268    31.4370    9.82450  101.54638    24.4707 2.4234e+01     22.314     0.6793 0.0000e+00
     23.000     8.0082    31.4275    9.84276  101.73306    24.4636 2.0864e+01     23.344     0.6544 0.0000e+00
     24.000     7.9906    31.4164    9.83950  101.69938    24.4576 1.8050e+01     24.282     0.6767 0.0000e+00
     25.000     7.9769    31.4135    9.85560  101.86703    24.4577 1.5540e+01     25.298     0.6266 0.0000e+00
     26.000     7.9685    31.4196    9.86163  101.93928    24.4654 1.3364e+01     26.304     0.6010 0.0000e+00
     27.000     7.9648    31.4221    9.87498  102.08607    24.4689 1.1577e+01     27.303     0.5854 0.0000e+00
     28.000     7.9616    31.4244    9.88102  102.16281    24.4716 1.0125e+01     28.268     0.5718 0.0000e+00
     29.000     7.9614    31.4251    9.88256  102.19025    24.4726 8.9026e+00     29.260     0.6939 0.0000e+00
     30.000     7.9612    31.4286    9.87985  102.16112    24.4757 7.8705e+00     30.148     0.5489 0.0000e+00
     31.000     7.9532    31.4289    9.89297  102.29493    24.4760 6.9476e+00     31.194     0.6035 0.0000e+00
     32.000     7.9508    31.4288    9.89482  102.31519    24.4766 6.1779e+00     32.196     0.6064 0.0000e+00
     33.000     7.9464    31.4312    9.90679  102.43229    24.4791 5.5013e+00     33.155     0.6525 0.0000e+00
     34.000     7.9428    31.4320    9.91246  102.47649    24.4800 4.9138e+00     34.163     0.5623 0.0000e+00
     35.000     7.9412    31.4343    9.90088  102.34787    24.4827 4.4039e+00     35.303     0.5739 0.0000e+00
     36.000     7.9412    31.4362    9.92952  102.64075    24.4844 4.0212e+00     36.170     0.6018 0.0000e+00
     37.000     7.9404    31.4368    9.94542  102.79713    24.4849 3.6595e+00     37.363     0.5737 0.0000e+00
     38.000     7.9451    31.4383    9.94696  102.79941    24.4863 3.3874e+00     38.346     0.5669 0.0000e+00
     39.000     7.9491    31.4451    9.95495  102.87450    24.4914 3.1296e+00     39.317     0.5978 0.0000e+00
     40.000     7.9549    31.4469    9.94813  102.78985    24.4921 2.9048e+00     40.401     0.5988 0.0000e+00
     41.000     7.9559    31.4534    9.94836  102.78535    24.4965 2.7140e+00     41.391     0.6250 0.0000e+00
     42.000     7.9539    31.4527    9.95079  102.81507    24.4954 2.5501e+00     42.439     0.6209 0.0000e+00
     43.000     7.9534    31.4557    9.95645  102.87244    24.4980 2.4132e+00     43.451     0.6202 0.0000e+00
     44.000     7.9478    31.4589    9.95875  102.89535    24.5005 2.2901e+00     44.385     0.5847 0.0000e+00
     45.000     7.9396    31.4652    9.95985  102.89527    24.5059 2.1873e+00     45.503     0.6154 0.0000e+00
     46.000     7.9360    31.4729    9.96393  102.92241    24.5130 2.1023e+00     46.466     0.6347 0.0000e+00
     47.000     7.9327    31.4789    9.97184  102.99584    24.5186 2.0232e+00     47.455     0.6752 0.0000e+00
     48.000     7.9290    31.4810    9.96845  102.95758    24.5206 1.9561e+00     48.600     0.6368 0.0000e+00
     49.000     7.9224    31.4832    9.96389  102.91108    24.5228 1.9031e+00     49.450     0.6171 0.0000e+00
     50.000     7.9187    31.4856    9.97375  103.00214    24.5253 1.8552e+00     50.396     0.6579 0.0000e+00
     51.000     7.9124    31.4890    9.97792  103.04044    24.5287 1.8145e+00     51.329     0.6413 0.0000e+00
     52.000     7.9081    31.4919    9.98133  103.07156    24.5316 1.7774e+00     52.266     0.6715 0.0000e+00
     53.000     7.9098    31.4986    9.97620  103.01909    24.5381 1.7449e+00     53.595     0.6835 0.0000e+00
     54.000     7.9091    31.4995    9.97728  103.02835    24.5389 1.7185e+00     54.746     0.6585 0.0000e+00
     55.000     7.9086    31.4956    9.97868  103.03729    24.5352 1.6943e+00     55.773     0.6565 0.0000e+00
     56.000     7.9020    31.4982    9.98128  103.06414    24.5377 1.6753e+00     56.766     0.6677 0.0000e+00
     57.000     7.8937    31.4995    9.98444  103.09615    24.5390 1.6583e+00     57.728     0.6560 0.0000e+00
     58.000     7.8897    31.5053    9.98653  103.11704    24.5446 1.6432e+00     58.639     0.6691 0.0000e+00
     59.000     7.8882    31.5125    9.98938  103.14627    24.5514 1.6301e+00     59.627     0.6888 0.0000e+00
     60.000     7.8880    31.5148    9.99154  103.16878    24.5535 1.6184e+00     60.578     0.6458 0.0000e+00
     61.000     7.8827    31.5157    9.97555  103.00289    24.5544 1.6085e+00     61.514     0.6601 0.0000e+00
     62.000     7.8761    31.5160    9.98235  103.07283    24.5547 1.5989e+00     62.714     0.6425 0.0000e+00
     63.000     7.8762    31.5268    9.97936  103.04273    24.5642 1.5922e+00     63.597     0.6454 0.0000e+00
     64.000     7.8752    31.5290    9.98522  103.10305    24.5664 1.5862e+00     64.497     0.6957 0.0000e+00
     65.000     7.8758    31.5311    9.98189  103.06845    24.5683 1.5810e+00     65.489     0.6957 0.0000e+00
     66.000     7.8738    31.5311    9.98224  103.07295    24.5683 1.5762e+00     66.481     0.6762 0.0000e+00
     67.000     7.8709    31.5308    9.98602  103.11226    24.5679 1.5721e+00     67.404     0.6529 0.0000e+00
     68.000     7.8700    31.5372    9.98507  103.10291    24.5735 1.5682e+00     68.566     0.6842 0.0000e+00
     69.000     7.8693    31.5396    9.98305  103.08258    24.5756 1.5652e+00     69.557     0.7084 0.0000e+00
     70.000     7.8686    31.5409    9.99057  103.15993    24.5768 1.5628e+00     70.570     0.7016 0.0000e+00
     71.000     7.8686    31.5428    9.98824  103.13670    24.5784 1.5598e+00     71.713     0.7013 0.0000e+00
     72.000     7.8683    31.5430    9.98372  103.08946    24.5786 1.5582e+00     72.674     0.7110 0.0000e+00
     73.000     7.8679    31.5437    9.99242  103.17889    24.5791 1.5565e+00     73.778     0.7545 0.0000e+00
     74.000     7.8680    31.5448    9.99525  103.20790    24.5802 1.5550e+00     74.874     0.7250 0.0000e+00
     75.000     7.8677    31.5447    9.99035  103.15724    24.5800 1.5535e+00     75.704     0.7160 0.0000e+00
     76.000     7.8675    31.5459    9.98596  103.11195    24.5810 1.5527e+00     76.779     0.7071 0.0000e+00
     77.000     7.8677    31.5460   10.02140  103.47814    24.5811 1.5518e+00     77.730     0.7078 0.0000e+00
     78.000     7.8673    31.5463   10.00837  103.34877    24.5813 1.5513e+00     78.645     0.7335 0.0000e+00
     79.000     7.8673    31.5478    9.99146  103.17328    24.5825 1.5501e+00     79.709     0.7144 0.0000e+00
     80.000     7.8671    31.5487    9.98177  103.07565    24.5833 1.5494e+00     80.670     0.7244 0.0000e+00
     81.000     7.8669    31.5501    9.97377  102.99303    24.5843 1.5488e+00     81.631     0.7236 0.0000e+00
     82.000     7.8670    31.5519    9.97343  102.98985    24.5857 1.5483e+00     82.730     0.7321 0.0000e+00
     83.000     7.8667    31.5511    9.96287  102.88270    24.5851 1.5477e+00     83.499     0.6968 0.0000e+00
     84.000     7.8665    31.5518    9.97351  102.99220    24.5857 1.5475e+00     84.324     0.7147 0.0000e+00
     85.000     7.8663    31.5524    9.97752  103.03259    24.5863 1.5473e+00     85.166     0.7348 0.0000e+00
     86.000     7.8664    31.5528    9.97337  102.98984    24.5866 1.5470e+00     85.933     0.8022 0.0000e+00
     87.000     7.8663    31.5528    9.96845  102.93873    24.5866 1.5468e+00     86.670     0.8081 0.0000e+00
     88.000     7.8664    31.5525    9.96200  102.87251    24.5863 1.5462e+00     87.363     0.7670 0.0000e+00
     89.000     7.8688    31.5527    9.96963  102.95031    24.5864 1.5466e+00     87.986     0.8607 0.0000e+00
     88.000     7.8697    31.5528    9.98017  103.05696    24.5861 1.5464e+00     87.569     0.8786 0.0000e+00
     87.000     7.8701    31.5532    9.96615  102.91194    24.5865 1.5466e+00     86.945     1.0251 0.0000e+00
     86.000     7.8698    31.5528    9.96759  102.92395    24.5860 1.5469e+00     86.238     0.8939 0.0000e+00
     85.000     7.8698    31.5522    9.96338  102.88128    24.5856 1.5473e+00     85.347     0.8561 0.0000e+00
     84.000     7.8699    31.5522    9.97531  103.00416    24.5856 1.5476e+00     84.540     0.7804 0.0000e+00
     83.000     7.8700    31.5517    9.97871  103.03951    24.5852 1.5480e+00     83.660     0.8161 0.0000e+00
     82.000     7.8700    31.5517    9.97354  102.98558    24.5852 1.5482e+00     82.734     0.8259 0.0000e+00
     81.000     7.8691    31.5513    9.97570  103.00799    24.5849 1.5483e+00     81.790     0.7918 0.0000e+00
     80.000     7.8693    31.5506    9.96510  102.89790    24.5844 1.5492e+00     80.761     0.8571 0.0000e+00
     79.000     7.8694    31.5511    9.96432  102.88929    24.5848 1.5499e+00     79.858     0.8130 0.0000e+00
     78.000     7.8690    31.5504    9.96778  102.92537    24.5842 1.5508e+00     78.798     0.7375 0.0000e+00
     77.000     7.8686    31.5495    9.97125  102.96122    24.5836 1.5516e+00     77.846     0.7413 0.0000e+00
     76.000     7.8693    31.5479    9.97063  102.95526    24.5824 1.5525e+00     76.762     0.7684 0.0000e+00
     75.000     7.8697    31.5462    9.97453  102.99627    24.5810 1.5541e+00     75.804     0.7205 0.0000e+00
     74.000     7.8695    31.5440    9.97177  102.97071    24.5793 1.5550e+00     74.756     0.7420 0.0000e+00
     73.000     7.8698    31.5443    9.97321  102.99279    24.5794 1.5565e+00     73.751     0.7672 0.0000e+00
     72.000     7.8700    31.5432    9.97236  102.99166    24.5786 1.5584e+00     72.701     0.7562 0.0000e+00
     71.000     7.8694    31.5428    9.97525  103.02028    24.5783 1.5599e+00     71.745     0.7092 0.0000e+00
     70.000     7.8696    31.5429    9.97283  102.98287    24.5783 1.5622e+00     70.737     0.7196 0.0000e+00
     69.000     7.8699    31.5426    9.97017  102.95596    24.5781 1.5651e+00     69.754     0.7158 0.0000e+00
     68.000     7.8701    31.5418    9.97717  103.02702    24.5775 1.5686e+00     68.748     0.7510 0.0000e+00
     67.000     7.8715    31.5414    9.97102  102.96516    24.5771 1.5723e+00     67.699     0.7330 0.0000e+00
     66.000     7.8738    31.5385    9.95880  102.83853    24.5747 1.5767e+00     66.717     0.6920 0.0000e+00
     65.000     7.8799    31.5346    9.97004  102.95924    24.5713 1.5814e+00     65.725     0.6633 0.0000e+00
     64.000     7.8844    31.5248    9.96619  102.93508    24.5626 1.5867e+00     64.618     0.7058 0.0000e+00
     63.000     7.8771    31.5213    9.97576  103.04788    24.5594 1.5934e+00     63.675     0.7002 0.0000e+00
     62.000     7.8747    31.5313    9.97664  103.06777    24.5682 1.6007e+00     62.638     0.7277 0.0000e+00
     61.000     7.8743    31.5327    9.96827  103.00049    24.5697 1.6086e+00     61.625     0.7694 0.0000e+00
     60.000     7.8752    31.5333    9.97260  103.05977    24.5702 1.6186e+00     60.652     0.6851 0.0000e+00
     59.000     7.8755    31.5317    9.97933  103.14445    24.5688 1.6302e+00     59.610     0.6642 0.0000e+00
     58.000     7.8789    31.5304    9.97973  103.15578    24.5677 1.6444e+00     58.588     0.7453 0.0000e+00
     57.000     7.8895    31.5237    9.98130  103.17317    24.5616 1.6599e+00     57.593     0.7527 0.0000e+00
     56.000     7.8976    31.5138    9.97848  103.14623    24.5527 1.6781e+00     56.632     0.7359 0.0000e+00
     55.000     7.9056    31.5053    9.98125  103.18019    24.5447 1.6994e+00     55.544     0.7172 0.0000e+00
     54.000     7.9162    31.5002    9.98689  103.24305    24.5397 1.7239e+00     54.576     0.7286 0.0000e+00
     53.000     7.9244    31.4916    9.99197  103.30107    24.5313 1.7529e+00     53.525     0.7037 0.0000e+00
     52.000     7.9306    31.4867    9.98024  103.17935    24.5263 1.7873e+00     52.491     0.7632 0.0000e+00
     51.000     7.9317    31.4834    9.97931  103.16849    24.5231 1.8259e+00     51.511     0.6883 0.0000e+00
     50.000     7.9333    31.4824    9.96868  103.05616    24.5221 1.8695e+00     50.463     0.7099 0.0000e+00
     49.000     7.9354    31.4816    9.97778  103.15290    24.5213 1.9217e+00     49.439     0.7214 0.0000e+00
     48.000     7.9379    31.4801    9.96945  103.06734    24.5198 1.9821e+00     48.437     0.7586 0.0000e+00
     47.000     7.9405    31.4792    9.97041  103.06129    24.5187 2.0507e+00     47.466     0.7241 0.0000e+00
     46.000     7.9409    31.4772    9.96079  102.95896    24.5168 2.1328e+00     46.404     0.6962 0.0000e+00
     45.000     7.9407    31.4769    9.96393  102.99394    24.5165 2.2292e+00     45.407     0.7035 0.0000e+00
     44.000     7.9395    31.4761    9.96155  102.97408    24.5159 2.3383e+00     44.394     0.7020 0.0000e+00
     43.000     7.9410    31.4771    9.95827  102.94441    24.5169 2.4658e+00     43.458     0.7577 0.0000e+00
     42.000     7.9446    31.4725    9.95684  102.92387    24.5130 2.6162e+00     42.441     0.7348 0.0000e+00
     41.000     7.9441    31.4642    9.95641  102.91439    24.5059 2.7977e+00     41.348     0.6542 0.0000e+00
     40.000     7.9417    31.4505    9.94254  102.76955    24.4955 3.0094e+00     40.422     0.6694 0.0000e+00
     39.000     7.9428    31.4456    9.94912  102.83918    24.4918 3.2474e+00     39.364     0.6029 0.0000e+00
     38.000     7.9438    31.4441    9.94776  102.83223    24.4905 3.5309e+00     38.385     0.5919 0.0000e+00
     37.000     7.9467    31.4445    9.94200  102.78587    24.4906 3.8691e+00     37.327     0.6127 0.0000e+00
     36.000     7.9455    31.4436    9.94634  102.85169    24.4895 4.2400e+00     36.349     0.6155 0.0000e+00
     35.000     7.9438    31.4409    9.95017  102.89669    24.4876 4.6806e+00     35.286     0.6106 0.0000e+00
     34.000     7.9440    31.4386    9.94657  102.86152    24.4860 5.2152e+00     34.274     0.6075 0.0000e+00
     33.000     7.9450    31.4351    9.95419  102.94679    24.4833 5.7813e+00     33.235     0.6395 0.0000e+00
     32.000     7.9478    31.4334    9.95116  102.93365    24.4818 6.5056e+00     32.283     0.5712 0.0000e+00
     31.000     7.9516    31.4324    9.95649  103.00873    24.4806 7.3349e+00     31.298     0.6094 0.0000e+00
     30.000     7.9611    31.4323    9.95923  103.05691    24.4799 8.2800e+00     30.217     0.5834 0.0000e+00
     29.000     7.9662    31.4328    9.95715  103.06191    24.4790 9.4002e+00     29.239     0.5836 0.0000e+00
     28.000     7.9668    31.4294    9.97044  103.21943    24.4757 1.0692e+01     28.328     0.6067 0.0000e+00
     27.000     7.9681    31.4286    9.96419  103.17168    24.4750 1.2247e+01     27.134     0.5734 0.0000e+00
     26.000     7.9724    31.4271    9.96314  103.17747    24.4737 1.3975e+01     26.286     0.6178 0.0000e+00
     25.000     7.9821    31.4258    9.98005  103.36829    24.4718 1.6066e+01     25.170     0.6699 0.0000e+00
     24.000     7.9894    31.4267    9.98774  103.46255    24.4712 1.8629e+01     24.144     0.6150 0.0000e+00
     23.000     7.9991    31.4264    9.99324  103.53210    24.4701 2.1557e+01     23.154     0.6206 0.0000e+00
     22.000     8.0093    31.4265   10.00220  103.63756    24.4687 2.4955e+01     22.099     0.6085 0.0000e+00
     21.000     8.0176    31.4260   10.00203  103.64957    24.4671 2.8935e+01     21.202     0.6306 0.0000e+00
     20.000     8.0247    31.4208   10.02276  103.89604    24.4614 3.4056e+01     19.982     0.6441 0.0000e+00
     19.000     8.0327    31.4183   10.03459  104.03867    24.4589 3.9580e+01     19.142     0.7458 0.0000e+00
     18.000     8.0401    31.4131   10.06034  104.33181    24.4535 4.6422e+01     18.092     0.7210 0.0000e+00
     17.000     8.0464    31.4070   10.07452  104.50550    24.4478 5.4992e+01     17.148     0.6911 0.0000e+00
     16.000     8.0532    31.4013   10.09353  104.73593    24.4423 6.5278e+01     16.062     0.7641 0.0000e+00
     15.000     8.0582    31.3982   10.11348  104.98819    24.4390 7.6917e+01     15.090     0.9337 0.0000e+00
     14.000     8.0641    31.3942   10.13560  105.28686    24.4350 9.0895e+01     14.010     0.7725 0.0000e+00
     13.000     8.0720    31.3912   10.17841  105.83583    24.4320 1.0889e+02     13.052     0.8257 0.0000e+00
     12.000     8.0846    31.3876   10.27603  106.99826    24.4281 1.2979e+02     12.006     0.7401 0.0000e+00
     11.000     8.0936    31.3842   10.18902  106.33753    24.4239 1.5597e+02     11.057     0.7752 0.0000e+00
     10.000     8.1046    31.3791   10.25863  107.55908    24.4184 1.8880e+02     10.088     0.7137 0.0000e+00
      9.000     8.1162    31.3737   10.28012  108.19205    24.4128 2.2578e+02      9.120     0.7380 0.0000e+00
      8.000     8.1284    31.3670   10.22279  107.60055    24.4058 2.7883e+02      8.169     0.6478 0.0000e+00
      7.000     8.1435    31.3614 -9.990e-29 -9.990e-29    24.3996 3.4546e+02      7.216     0.5214 0.0000e+00
      6.000     8.1696    31.3549 -9.990e-29 -9.990e-29    24.3925 4.2517e+02      6.261     0.5014 0.0000e+00
      5.000     8.2065    31.3427 -9.990e-29 -9.990e-29    24.3793 5.1226e+02      5.299     0.4432 0.0000e+00
      4.000     8.2682    31.3276 -9.990e-29 -9.990e-29    24.3623 6.8928e+02      4.373     0.4010 0.0000e+00
      3.000     8.3478    31.3029 -9.990e-29 -9.990e-29    24.3348 7.9817e+02      3.503     0.3239 0.0000e+00
      2.000     8.5151    31.2811 -9.990e-29 -9.990e-29    24.3065 9.5026e+02      2.702     0.3469 0.0000e+00
      1.000     8.7634    31.2493 -9.990e-29 -9.990e-29    24.2509 2.8580e+03      2.042     0.2628 0.0000e+00
