* Sea-Bird SBE19plus Data File:
* FileName = C:\data\otf\2007\ctd-07033.hex
* Software Version 1.55
* Temperature SN =  5061
* Conductivity SN =  5061
* System UpLoad Time = Aug 15 2007 16:05:10
* ds
* SeacatPlus V 1.6a  SERIAL NO. 5061    15 Aug 2007  15:31:53
* vbatt = 10.9, vlith =  8.7, ioper =  61.6 ma, ipump =  57.5 ma, 
* iext01 =  95.2 ma
* iext23 =  58.1 ma
* 
* status = not logging
* number of scans to average = 1
* samples = 153039, free = 288466, casts = 154
* mode = profile, minimum cond freq = 3000, pump delay = 60 sec
* autorun = no, ignore magnetic switch = no
* battery type = alkaline, battery cutoff =  7.3 volts
* pressure sensor = strain gauge, range = 870.0
* SBE 38 = no, Gas Tension Device = no
* Ext Volt 0 = yes, Ext Volt 1 = yes, Ext Volt 2 = yes, Ext Volt 3 = yes
* echo commands = yes
* output format = raw HEX
* S>
* 
* SeacatPlus V 1.6a  SERIAL NO. 5061    15 Aug 2007  15:32:18
* temperature:  05-oct-06
*     TA0 = 1.254184e-03
*     TA1 = 2.596730e-04
*     TA2 = 5.165612e-07
*     TA3 = 1.318931e-07
*     TOFFSET = 0.000000e+00
* conductivity:  05-oct-06
*     G = -9.978144e-01
*     H = 1.555200e-01
*     I = -4.839108e-04
*     J = 6.121100e-05
*     CF0 = 2.539936e+03
*     CPCOR = -9.570000e-08
*     CTCOR = 3.250000e-06
*     CSLOPE = 1.000000e+00
* pressure S/N = 2362539, range = 870 psia:  24-aug-06
*     PA0 = 2.171091e-01
*     PA1 = 2.647085e-03
*     PA2 = 1.419397e-11
*     PTCA0 = 5.242437e+05
*     PTCA1 = 7.545345e+00
*     PTCA2 = -1.835354e-01
*     PTCB0 = 2.537125e+01
*     PTCB1 = -1.750000e-03
*     PTCB2 = 0.000000e+00
*     PTEMPA0 = -5.753989e+01
*     PTEMPA1 = 5.235813e+01
*     PTEMPA2 = -4.015521e-02
*     POFFSET = 0.000000e+00
* volt 0: offset = -4.682842e-02, slope = 1.249147e+00
* volt 1: offset = -4.695158e-02, slope = 1.248145e+00
* volt 2: offset = -4.685263e-02, slope = 1.248783e+00
* volt 3: offset = -4.690316e-02, slope = 1.249508e+00
*     EXTFREQSF = 1.000002e+00
* dh
* cast  33 07 Jul 2007 14:11:11 samples 38104 to 38308, avg = 4, stop = mag switch
* S> 
# nquan = 10
# nvalues = 98                          
# units = specified
# name 0 = depSM: Depth [salt water, m]
# name 1 = tv290C: Temperature [ITS-90, deg C]
# name 2 = sal00: Salinity [PSU]
# name 3 = sbeox0Mg/L: Oxygen, SBE 43 [mg/l]
# name 4 = sbeox0PS: Oxygen, SBE 43 [% saturation]
# name 5 = sigma-t00: Density [sigma-t, Kg/m^3 ]
# name 6 = par: PAR/Irradiance, Biospherical/Licor
# name 7 = prdM: Pressure, Strain Gauge [db]
# name 8 = flECO-AFL: Fluorescence, Wetlab ECO-AFL/FL [mg/m^3]
# name 9 = flag: flag
# span 0 =      1.000,     51.000       
# span 1 =     8.4019,     9.3881       
# span 2 =    30.3475,    31.0085       
# span 3 =    8.77808,   10.19420       
# span 4 =   92.42780,  107.20516       
# span 5 =    23.4258,    24.0832       
# span 6 = 1.5417e+00, 2.0871e+03       
# span 7 =      2.111,     49.504       
# span 8 =     0.2981,     0.9986       
# span 9 = 0.0000e+00, 0.0000e+00       
# interval = meters: 1                  
# start_time = Jul 07 2007 14:11:11
# bad_flag = -9.990e-29
# sensor 0 = Frequency 0  temperature, 5061, 05-Oct-06
# sensor 1 = Frequency 1  conductivity, 5061, 05-Oct-06, cpcor = -9.5700e-08
# sensor 2 = Pressure Number
# sensor 3 = Extrnl Volt  0  irradiance (PAR), primary, 4751, 08/10/06
# sensor 4 = Extrnl Volt  1  Oxygen, SBE, primary, 1081, 10/24/06
# sensor 5 = Extrnl Volt  2  WET Labs, ECO_AFL
# sensor 6 = Extrnl Volt  3  userpoly 0, 0627, 10/11/06
# datcnv_date = Oct 15 2007 14:49:44, 5.37e
# datcnv_in = I:\bob d\OTF_GEM\2007\ctd-07033.hex I:\Willette\OTF\CTD\5061.con
# datcnv_skipover = 0
# filter_date = Oct 15 2007 15:02:23, 5.37e
# filter_in = I:\Willette\OTF\CTD\2007\CTD Data\ctd-07033.cnv
# filter_low_pass_tc_A = 1.000
# filter_low_pass_tc_B = 0.150
# filter_low_pass_A_vars = prdM
# filter_low_pass_B_vars =
# loopedit_date = Oct 15 2007 15:06:46, 5.37e
# loopedit_in = I:\Willette\OTF\CTD\2007\CTD Data\ctd-07033.cnv
# loopedit_minVelocity = 0.250                                                                                            
# loopedit_surfaceSoak: minDepth = 5.0, maxDepth = 20, useDeckPress = 1                                                   
# loopedit_excl_bad_scans = yes
# alignctd_date = Oct 15 2007 15:14:14, 5.37e
# alignctd_in = I:\Willette\OTF\CTD\2007\CTD Data\ctd-07033.cnv
# alignctd_adv = tv290C 0.500, sbeox0Mg/L 4.000, sbeox0PS 4.000                                                                                                                                                                      
# binavg_date = Oct 15 2007 15:18:43, 5.37e
# binavg_in = I:\Willette\OTF\CTD\2007\CTD Data\ctd-07033.cnv
# binavg_bintype = meters
# binavg_binsize = 1
# binavg_excl_bad_scans = yes
# binavg_skipover = 0
# binavg_surface_bin = no, min = 0.000, max = 0.000, value = 0.000
# file_type = ascii
*END*
      4.000     9.3881    30.5813    8.95301   94.28321    23.6050 5.2105e+02      4.034     0.4160 0.0000e+00
      5.000     9.3214    30.4184    8.97788   94.66666    23.4722 3.6428e+02      5.338     0.5654 0.0000e+00
      6.000     9.3012    30.4657    8.87257   93.48565    23.5216 2.4205e+02      6.489     0.7085 0.0000e+00
      7.000     9.2688    30.3943    8.83569   93.07877    23.4662 1.6552e+02      7.664     0.8538 0.0000e+00
      8.000     9.2543    30.4269    8.77808   92.42780    23.4974 1.1619e+02      8.431     0.8911 0.0000e+00
      9.000     9.1839    30.4098    8.91034   93.82784    23.4853 8.0563e+01      9.433     0.9249 0.0000e+00
     10.000     9.1250    30.4496    8.92829   93.96891    23.5242 5.8570e+01     10.343     0.8523 0.0000e+00
     11.000     9.0723    30.5145    9.09060   95.61050    23.5859 4.0451e+01     11.320     0.8228 0.0000e+00
     12.000     9.0525    30.5167    9.30042   97.76294    23.5932 2.8019e+01     12.217     0.7983 0.0000e+00
     13.000     9.0394    30.5468    9.39785   98.78594    23.6231 1.9556e+01     12.885     0.7770 0.0000e+00
     14.000     9.0183    30.5727    9.53843  100.26672    23.6459 1.3072e+01     13.786     0.7637 0.0000e+00
     15.000     9.0596    30.5917    9.54022  100.28866    23.6639 9.3182e+00     14.718     0.7792 0.0000e+00
     16.000     9.0106    30.6084    9.62969  101.22490    23.6723 6.0852e+00     16.162     0.7709 0.0000e+00
     17.000     9.0051    30.6155    9.65479  101.48308    23.6843 4.5023e+00     17.213     0.7727 0.0000e+00
     18.000     8.9857    30.6089    9.71044  102.04926    23.6801 3.3202e+00     18.490     0.7433 0.0000e+00
     19.000     8.9892    30.6037    9.70136  101.95791    23.6787 2.7056e+00     19.242     0.7725 0.0000e+00
     20.000     8.9556    30.6160    9.74483  102.40924    23.6888 2.1954e+00     20.407     0.7675 0.0000e+00
     21.000     8.9285    30.5992    9.74793  102.43160    23.6779 1.9733e+00     21.197     0.7727 0.0000e+00
     22.000     8.9114    30.6045    9.76392  102.60583    23.6867 1.7980e+00     22.153     0.7779 0.0000e+00
     23.000     8.9100    30.6245    9.76583  102.61919    23.7070 1.6853e+00     22.993     0.7674 0.0000e+00
     24.000     8.9119    30.6301    9.76517  102.61199    23.7126 1.6135e+00     24.132     0.8073 0.0000e+00
     25.000     8.9108    30.6262    9.79659  102.89219    23.7087 1.5838e+00     25.070     0.7820 0.0000e+00
     26.000     8.9072    30.6256    9.80582  102.95745    23.7083 1.5659e+00     26.485     0.7727 0.0000e+00
     27.000     8.8991    30.6262    9.82031  103.06076    23.7090 1.5556e+00     27.538     0.7628 0.0000e+00
     28.000     8.8996    30.6297    9.80570  102.89796    23.7127 1.5482e+00     28.633     0.7322 0.0000e+00
     29.000     8.8976    30.6333    9.82965  103.02192    23.7161 1.5464e+00     29.353     0.7618 0.0000e+00
     30.000     8.8882    30.6332    9.85099  103.10951    23.7160 1.5442e+00     30.429     0.7795 0.0000e+00
     31.000     8.8924    30.6369    9.83833  102.88307    23.7197 1.5431e+00     31.304     0.7835 0.0000e+00
     32.000     8.8908    30.6390    9.82800  102.63077    23.7217 1.5428e+00     32.344     0.7958 0.0000e+00
     33.000     8.8903    30.6355    9.82617  102.51498    23.7184 1.5423e+00     33.293     0.8045 0.0000e+00
     34.000     8.8645    30.6398    9.84199  102.60110    23.7226 1.5424e+00     34.555     0.7633 0.0000e+00
     35.000     8.8570    30.6518    9.83836  102.53149    23.7344 1.5420e+00     35.538     0.7717 0.0000e+00
     36.000     8.8456    30.6593    9.85328  102.65868    23.7420 1.5420e+00     36.568     0.7876 0.0000e+00
     37.000     8.8247    30.6663    9.84159  102.53142    23.7489 1.5420e+00     37.556     0.7980 0.0000e+00
     38.000     8.8174    30.6727    9.87446  102.85988    23.7556 1.5417e+00     38.590     0.7810 0.0000e+00
     39.000     8.7648    30.6921    9.81415  102.22919    23.7741 1.5420e+00     39.418     0.7950 0.0000e+00
     40.000     8.7215    30.6891    9.84327  102.54804    23.7721 1.5424e+00     40.469     0.8211 0.0000e+00
     41.000     8.6586    30.7375    9.84506  102.55796    23.8193 1.5418e+00     41.363     0.8231 0.0000e+00
     42.000     8.6141    30.7759    9.85174  102.62922    23.8573 1.5419e+00     42.288     0.7562 0.0000e+00
     43.000     8.5536    30.8156    9.86150  102.74065    23.8959 1.5419e+00     43.160     0.7539 0.0000e+00
     44.000     8.4988    30.8482    9.85660  102.69735    23.9281 1.5420e+00     44.098     0.7253 0.0000e+00
     45.000     8.4718    30.9022    9.87419  102.87362    23.9803 1.5420e+00     44.930     0.7281 0.0000e+00
     46.000     8.4321    30.9451    9.83351  102.43778    24.0216 1.5420e+00     45.909     0.7453 0.0000e+00
     47.000     8.4236    30.9653    9.86633  102.80537    24.0415 1.5420e+00     46.729     0.7814 0.0000e+00
     48.000     8.4112    30.9826    9.86033  102.77476    24.0582 1.5419e+00     47.498     0.7827 0.0000e+00
     49.000     8.4098    30.9963    9.86161  102.80245    24.0714 1.5420e+00     48.254     0.7872 0.0000e+00
     50.000     8.4019    31.0044    9.86049  102.87141    24.0789 1.5423e+00     48.870     0.8122 0.0000e+00
     51.000     8.4079    31.0085    9.88172  103.24271    24.0832 1.5420e+00     49.504     0.8764 0.0000e+00
     50.000     8.4128    31.0075    9.87168  103.34135    24.0819 1.5426e+00     49.246     0.9091 0.0000e+00
     49.000     8.4082    31.0019    9.87222  103.48880    24.0763 1.5423e+00     48.662     0.9023 0.0000e+00
     48.000     8.4092    31.0035    9.85503  103.37356    24.0780 1.5423e+00     47.907     0.9986 0.0000e+00
     47.000     8.4392    30.9985    9.86062  103.48338    24.0735 1.5420e+00     47.179     0.9030 0.0000e+00
     46.000     8.4651    30.9740    9.88319  103.76232    24.0500 1.5419e+00     46.156     0.7718 0.0000e+00
     45.000     8.5615    30.9630    9.85274  103.45779    24.0393 1.5420e+00     45.220     0.8379 0.0000e+00
     44.000     8.6205    30.9001    9.86708  103.62738    23.9785 1.5424e+00     44.424     0.7452 0.0000e+00
     43.000     8.6606    30.8399    9.86215  103.58154    23.9201 1.5422e+00     43.441     0.7766 0.0000e+00
     42.000     8.7334    30.8063    9.86035  103.58386    23.8870 1.5419e+00     42.404     0.7837 0.0000e+00
     41.000     8.7841    30.7258    9.87170  103.71996    23.8082 1.5419e+00     41.032     0.8144 0.0000e+00
     40.000     8.8049    30.7227    9.86596  103.65777    23.8052 1.5419e+00     40.404     0.7855 0.0000e+00
     39.000     8.8303    30.7003    9.86047  103.60687    23.7829 1.5419e+00     39.435     0.8084 0.0000e+00
     38.000     8.8438    30.6789    9.87562  103.76411    23.7618 1.5420e+00     38.489     0.7785 0.0000e+00
     37.000     8.8603    30.6681    9.84456  103.44552    23.7512 1.5420e+00     37.237     0.7978 0.0000e+00
     36.000     8.8642    30.6603    9.86982  103.74124    23.7434 1.5419e+00     36.380     0.7691 0.0000e+00
     35.000     8.8706    30.6560    9.87090  103.77942    23.7391 1.5424e+00     35.386     0.7862 0.0000e+00
     34.000     8.8824    30.6505    9.86109  103.70346    23.7336 1.5420e+00     34.233     0.8297 0.0000e+00
     33.000     8.8829    30.6438    9.86902  103.78985    23.7269 1.5424e+00     33.293     0.8280 0.0000e+00
     32.000     8.8876    30.6423    9.85419  103.63701    23.7255 1.5427e+00     32.248     0.7917 0.0000e+00
     31.000     8.8877    30.6384    9.84057  103.49506    23.7218 1.5435e+00     31.213     0.8163 0.0000e+00
     30.000     8.8888    30.6382    9.85438  103.65252    23.7216 1.5451e+00     30.301     0.7963 0.0000e+00
     29.000     8.9022    30.6410    9.86215  103.74175    23.7241 1.5474e+00     29.166     0.7961 0.0000e+00
     28.000     8.9171    30.6316    9.86652  103.80489    23.7147 1.5509e+00     28.257     0.8433 0.0000e+00
     27.000     8.9284    30.6210    9.86873  103.84273    23.7042 1.5577e+00     27.355     0.7993 0.0000e+00
     26.000     8.9380    30.6085    9.86973  103.88844    23.6919 1.5678e+00     26.090     0.8230 0.0000e+00
     25.000     8.9376    30.6052    9.87067  103.91747    23.6885 1.5864e+00     25.212     0.8435 0.0000e+00
     24.000     8.9388    30.6045    9.87059  103.95345    23.6878 1.6187e+00     24.223     0.7939 0.0000e+00
     23.000     8.9419    30.6033    9.87447  104.05512    23.6866 1.6715e+00     23.077     0.8080 0.0000e+00
     22.000     8.9470    30.6018    9.87453  104.10367    23.6851 1.7625e+00     22.171     0.8158 0.0000e+00
     21.000     8.9506    30.5986    9.89935  104.40017    23.6817 1.9039e+00     21.267     0.7972 0.0000e+00
     20.000     8.9621    30.5954    9.88629  104.31070    23.6787 2.1582e+00     20.206     0.8299 0.0000e+00
     19.000     8.9686    30.5854    9.92359  104.79694    23.6688 2.4759e+00     19.070     0.8520 0.0000e+00
     18.000     8.9840    30.5842    9.87141  104.33128    23.6675 2.9785e+00     18.291     0.8369 0.0000e+00
     17.000     8.9970    30.5726    9.90374  104.73558    23.6559 3.8945e+00     17.154     0.7992 0.0000e+00
     16.000     9.0177    30.5640    9.91220  104.84714    23.6473 5.5436e+00     16.165     0.7944 0.0000e+00
     15.000     9.0523    30.5469    9.91245  104.88284    23.6305 7.9118e+00     14.994     0.7899 0.0000e+00
     14.000     9.0777    30.5273    9.94759  105.30104    23.6112 1.1875e+01     14.098     0.7965 0.0000e+00
     13.000     9.0973    30.5025    9.97773  105.66066    23.5869 1.7786e+01     13.040     0.7805 0.0000e+00
     12.000     9.1235    30.4900    9.98578  105.77284    23.5746 2.6425e+01     12.073     0.8099 0.0000e+00
     11.000     9.1738    30.4674   10.06179  106.59059    23.5526 3.5572e+01     10.985     0.8159 0.0000e+00
     10.000     9.2217    30.4445   10.09829  106.99289    23.5304 5.1629e+01     10.153     0.8177 0.0000e+00
      9.000     9.2377    30.4101   10.19420  107.20516    23.4964 7.6992e+01      9.322     0.8484 0.0000e+00
      8.000     9.2574    30.3819   10.04019  106.38088    23.4675 1.1301e+02      8.058     0.9077 0.0000e+00
      7.000     9.2691    30.3765 -9.990e-29 -9.990e-29    23.4615 1.7051e+02      7.170     0.8959 0.0000e+00
      6.000     9.2891    30.3710 -9.990e-29 -9.990e-29    23.4555 2.3662e+02      6.275     0.8454 0.0000e+00
      5.000     9.3086    30.3663 -9.990e-29 -9.990e-29    23.4489 3.3788e+02      5.330     0.7290 0.0000e+00
      4.000     9.3230    30.3574 -9.990e-29 -9.990e-29    23.4386 4.8942e+02      4.421     0.6056 0.0000e+00
      3.000     9.3319    30.3516 -9.990e-29 -9.990e-29    23.4315 7.2238e+02      3.493     0.4810 0.0000e+00
      2.000     9.3388    30.3496 -9.990e-29 -9.990e-29    23.4288 1.0556e+03      2.763     0.4192 0.0000e+00
      1.000     9.3490    30.3475 -9.990e-29 -9.990e-29    23.4258 2.0871e+03      2.111     0.2981 0.0000e+00
