* Sea-Bird SBE19plus Data File:
* FileName = C:\data\otf\2007\ctd-07021.hex
* Software Version 1.55
* Temperature SN =  5061
* Conductivity SN =  5061
* System UpLoad Time = Aug 15 2007 15:58:48
* ds
* SeacatPlus V 1.6a  SERIAL NO. 5061    15 Aug 2007  15:31:53
* vbatt = 10.9, vlith =  8.7, ioper =  61.6 ma, ipump =  57.5 ma, 
* iext01 =  95.2 ma
* iext23 =  58.1 ma
* 
* status = not logging
* number of scans to average = 1
* samples = 153039, free = 288466, casts = 154
* mode = profile, minimum cond freq = 3000, pump delay = 60 sec
* autorun = no, ignore magnetic switch = no
* battery type = alkaline, battery cutoff =  7.3 volts
* pressure sensor = strain gauge, range = 870.0
* SBE 38 = no, Gas Tension Device = no
* Ext Volt 0 = yes, Ext Volt 1 = yes, Ext Volt 2 = yes, Ext Volt 3 = yes
* echo commands = yes
* output format = raw HEX
* S>
* 
* SeacatPlus V 1.6a  SERIAL NO. 5061    15 Aug 2007  15:32:18
* temperature:  05-oct-06
*     TA0 = 1.254184e-03
*     TA1 = 2.596730e-04
*     TA2 = 5.165612e-07
*     TA3 = 1.318931e-07
*     TOFFSET = 0.000000e+00
* conductivity:  05-oct-06
*     G = -9.978144e-01
*     H = 1.555200e-01
*     I = -4.839108e-04
*     J = 6.121100e-05
*     CF0 = 2.539936e+03
*     CPCOR = -9.570000e-08
*     CTCOR = 3.250000e-06
*     CSLOPE = 1.000000e+00
* pressure S/N = 2362539, range = 870 psia:  24-aug-06
*     PA0 = 2.171091e-01
*     PA1 = 2.647085e-03
*     PA2 = 1.419397e-11
*     PTCA0 = 5.242437e+05
*     PTCA1 = 7.545345e+00
*     PTCA2 = -1.835354e-01
*     PTCB0 = 2.537125e+01
*     PTCB1 = -1.750000e-03
*     PTCB2 = 0.000000e+00
*     PTEMPA0 = -5.753989e+01
*     PTEMPA1 = 5.235813e+01
*     PTEMPA2 = -4.015521e-02
*     POFFSET = 0.000000e+00
* volt 0: offset = -4.682842e-02, slope = 1.249147e+00
* volt 1: offset = -4.695158e-02, slope = 1.248145e+00
* volt 2: offset = -4.685263e-02, slope = 1.248783e+00
* volt 3: offset = -4.690316e-02, slope = 1.249508e+00
*     EXTFREQSF = 1.000002e+00
* dh
* cast  21 05 Jul 2007 15:02:54 samples 31449 to 31649, avg = 4, stop = mag switch
* S> 
# nquan = 10
# nvalues = 98                          
# units = specified
# name 0 = depSM: Depth [salt water, m]
# name 1 = tv290C: Temperature [ITS-90, deg C]
# name 2 = sal00: Salinity [PSU]
# name 3 = sbeox0Mg/L: Oxygen, SBE 43 [mg/l]
# name 4 = sbeox0PS: Oxygen, SBE 43 [% saturation]
# name 5 = sigma-t00: Density [sigma-t, Kg/m^3 ]
# name 6 = par: PAR/Irradiance, Biospherical/Licor
# name 7 = prdM: Pressure, Strain Gauge [db]
# name 8 = flECO-AFL: Fluorescence, Wetlab ECO-AFL/FL [mg/m^3]
# name 9 = flag: flag
# span 0 =      1.000,     51.000       
# span 1 =     8.3560,     8.9651       
# span 2 =    30.2874,    30.9719       
# span 3 =    8.77056,   11.47828       
# span 4 =   92.06210,  107.37717       
# span 5 =    23.4363,    24.0610       
# span 6 = 1.5491e+00, 1.8688e+02       
# span 7 =      1.798,     50.392       
# span 8 =     0.7317,     0.9773       
# span 9 = 0.0000e+00, 0.0000e+00       
# interval = meters: 1                  
# start_time = Jul 05 2007 15:02:54
# bad_flag = -9.990e-29
# sensor 0 = Frequency 0  temperature, 5061, 05-Oct-06
# sensor 1 = Frequency 1  conductivity, 5061, 05-Oct-06, cpcor = -9.5700e-08
# sensor 2 = Pressure Number
# sensor 3 = Extrnl Volt  0  irradiance (PAR), primary, 4751, 08/10/06
# sensor 4 = Extrnl Volt  1  Oxygen, SBE, primary, 1081, 10/24/06
# sensor 5 = Extrnl Volt  2  WET Labs, ECO_AFL
# sensor 6 = Extrnl Volt  3  userpoly 0, 0627, 10/11/06
# datcnv_date = Oct 15 2007 14:49:43, 5.37e
# datcnv_in = I:\bob d\OTF_GEM\2007\ctd-07021.hex I:\Willette\OTF\CTD\5061.con
# datcnv_skipover = 0
# filter_date = Oct 15 2007 15:02:22, 5.37e
# filter_in = I:\Willette\OTF\CTD\2007\CTD Data\ctd-07021.cnv
# filter_low_pass_tc_A = 1.000
# filter_low_pass_tc_B = 0.150
# filter_low_pass_A_vars = prdM
# filter_low_pass_B_vars =
# loopedit_date = Oct 15 2007 15:06:45, 5.37e
# loopedit_in = I:\Willette\OTF\CTD\2007\CTD Data\ctd-07021.cnv
# loopedit_minVelocity = 0.250                                                                                            
# loopedit_surfaceSoak: minDepth = 5.0, maxDepth = 20, useDeckPress = 1                                                   
# loopedit_excl_bad_scans = yes
# alignctd_date = Oct 15 2007 15:14:13, 5.37e
# alignctd_in = I:\Willette\OTF\CTD\2007\CTD Data\ctd-07021.cnv
# alignctd_adv = tv290C 0.500, sbeox0Mg/L 4.000, sbeox0PS 4.000                                                                                                                                                                      
# binavg_date = Oct 15 2007 15:18:42, 5.37e
# binavg_in = I:\Willette\OTF\CTD\2007\CTD Data\ctd-07021.cnv
# binavg_bintype = meters
# binavg_binsize = 1
# binavg_excl_bad_scans = yes
# binavg_skipover = 0
# binavg_surface_bin = no, min = 0.000, max = 0.000, value = 0.000
# file_type = ascii
*END*
      4.000     8.9612    30.2944    8.77056   92.06210    23.4373 1.4464e+01      4.803     0.7613 0.0000e+00
      5.000     8.9580    30.2991    8.81053   92.48671    23.4447 7.8038e+00      5.618     0.7573 0.0000e+00
      6.000     8.9504    30.3143    8.97548   94.22127    23.4578 3.9729e+00      6.986     0.7317 0.0000e+00
      7.000     8.9509    30.3038    9.01799   94.66945    23.4499 2.9842e+00      7.401     0.7493 0.0000e+00
      8.000     8.9444    30.3092    9.00094   94.49501    23.4545 2.1430e+00      8.350     0.7857 0.0000e+00
      9.000     8.9402    30.3154    9.04826   94.99336    23.4599 1.7961e+00      9.198     0.8033 0.0000e+00
     10.000     8.9389    30.3213    9.10356   95.57100    23.4653 1.6713e+00      9.853     0.7663 0.0000e+00
     11.000     8.9368    30.3302    9.10408   95.56635    23.4729 1.6004e+00     10.692     0.7612 0.0000e+00
     12.000     8.9326    30.3308    9.07507   95.24316    23.4737 1.5736e+00     11.832     0.7863 0.0000e+00
     13.000     8.9301    30.3390    9.03095   94.75703    23.4808 1.5628e+00     12.993     0.7945 0.0000e+00
     14.000     8.9252    30.3343    9.04426   94.85798    23.4774 1.5557e+00     14.486     0.8273 0.0000e+00
     15.000     8.9286    30.3400    9.20222   96.41212    23.4826 1.5541e+00     15.248     0.7951 0.0000e+00
     16.000     8.9290    30.3441    9.46134   99.04045    23.4855 1.5531e+00     16.399     0.7863 0.0000e+00
     17.000     8.9299    30.3460    9.57106  100.10912    23.4869 1.5528e+00     17.231     0.7718 0.0000e+00
     18.000     8.9300    30.3494    9.65573  100.94211    23.4895 1.5523e+00     18.320     0.7763 0.0000e+00
     19.000     8.9242    30.3536    9.70757  101.45839    23.4926 1.5523e+00     19.321     0.8000 0.0000e+00
     20.000     8.9131    30.3662    9.73802  101.72875    23.5029 1.5519e+00     20.214     0.8234 0.0000e+00
     21.000     8.8961    30.3856    9.76608  101.92267    23.5192 1.5522e+00     21.368     0.8216 0.0000e+00
     22.000     8.8893    30.4104    9.77772  102.04114    23.5407 1.5519e+00     22.199     0.8068 0.0000e+00
     23.000     8.8669    30.4321    9.80959  102.32804    23.5595 1.5517e+00     23.439     0.8252 0.0000e+00
     24.000     8.8392    30.4559    9.82780  102.48786    23.5808 1.5519e+00     24.502     0.8273 0.0000e+00
     25.000     8.7730    30.4766    9.84288  102.62352    23.5995 1.5516e+00     25.563     0.8332 0.0000e+00
     26.000     8.7464    30.5224    9.85996  102.78470    23.6408 1.5516e+00     26.458     0.8278 0.0000e+00
     27.000     8.7136    30.5805    9.87344  102.90200    23.6953 1.5516e+00     27.388     0.8285 0.0000e+00
     28.000     8.6520    30.5998    9.89272  103.06815    23.7143 1.5517e+00     28.551     0.8570 0.0000e+00
     29.000     8.6565    30.6313    9.89705  103.11523    23.7450 1.5518e+00     29.418     0.8310 0.0000e+00
     30.000     8.6415    30.6517    9.91341  103.27047    23.7649 1.5517e+00     30.446     0.8094 0.0000e+00
     31.000     8.6216    30.6597    9.92189  103.35276    23.7729 1.5517e+00     31.274     0.8120 0.0000e+00
     32.000     8.5859    30.6689    9.92551  103.38001    23.7820 1.5517e+00     32.156     0.8086 0.0000e+00
     33.000     8.5622    30.6894    9.92390  103.33526    23.8017 1.5514e+00     33.157     0.7965 0.0000e+00
     34.000     8.5513    30.7282    9.92843  103.35439    23.8380 1.5513e+00     34.034     0.7763 0.0000e+00
     35.000     8.5246    30.7483    9.94832  103.52702    23.8564 1.5511e+00     35.080     0.7683 0.0000e+00
     36.000     8.5109    30.7657    9.94332  103.45665    23.8718 1.5518e+00     35.973     0.7802 0.0000e+00
     37.000     8.4947    30.7977    9.94609  103.47776    23.9009 1.5518e+00     37.013     0.7669 0.0000e+00
     38.000     8.4832    30.8195   10.08264  104.89359    23.9208 1.5514e+00     38.050     0.7527 0.0000e+00
     39.000     8.4610    30.8337    9.90411  103.03712    23.9340 1.5514e+00     39.269     0.7854 0.0000e+00
     40.000     8.4491    30.8591    9.91918  103.19308    23.9573 1.5512e+00     40.629     0.8014 0.0000e+00
     41.000     8.4392    30.8675    9.93454  103.35219    23.9651 1.5516e+00     41.597     0.7762 0.0000e+00
     42.000     8.4353    30.8776    9.94623  103.47433    23.9745 1.5513e+00     42.590     0.8099 0.0000e+00
     43.000     8.4250    30.8859    9.95035  103.51778    23.9822 1.5514e+00     43.415     0.7991 0.0000e+00
     44.000     8.4014    30.8879    9.95195  103.53479    23.9839 1.5510e+00     44.377     0.7801 0.0000e+00
     45.000     8.3854    30.9066    9.95769  103.59419    24.0009 1.5511e+00     45.139     0.7861 0.0000e+00
     46.000     8.3697    30.9290    9.95657  103.58487    24.0215 1.5510e+00     46.069     0.7975 0.0000e+00
     47.000     8.3614    30.9524    9.95686  103.58785    24.0429 1.5509e+00     46.972     0.8076 0.0000e+00
     48.000     8.3560    30.9648    9.96576  103.67898    24.0545 1.5510e+00     47.827     0.7681 0.0000e+00
     49.000     8.3562    30.9684    9.96246  103.64557    24.0577 1.5505e+00     48.318     0.7624 0.0000e+00
     50.000     8.3567    30.9719    9.96722  103.69528    24.0610 1.5514e+00     49.107     0.8178 0.0000e+00
     51.000     8.3571    30.9708    9.98042  103.89212    24.0602 1.5509e+00     50.392     0.9713 0.0000e+00
     50.000     8.3572    30.9714    9.98833  104.05174    24.0605 1.5508e+00     49.703     0.9773 0.0000e+00
     49.000     8.3599    30.9713    9.99515  104.12749    24.0605 1.5504e+00     48.914     0.9203 0.0000e+00
     48.000     8.3695    30.9685    9.98053  103.98830    24.0580 1.5504e+00     48.097     0.9070 0.0000e+00
     47.000     8.3814    30.9566    9.98947  104.10795    24.0472 1.5504e+00     47.159     0.8845 0.0000e+00
     46.000     8.3877    30.9437    9.97692  103.99821    24.0355 1.5506e+00     46.303     0.8490 0.0000e+00
     45.000     8.4090    30.9369    9.98656  104.12282    24.0293 1.5504e+00     45.379     0.8456 0.0000e+00
     44.000     8.4267    30.9095    9.99227  104.21764    24.0045 1.5505e+00     44.238     0.8519 0.0000e+00
     43.000     8.4357    30.8981    9.98079  104.11730    23.9938 1.5509e+00     43.516     0.8622 0.0000e+00
     42.000     8.4431    30.8823    9.99443  104.28347    23.9793 1.5503e+00     42.324     0.8783 0.0000e+00
     41.000     8.4461    30.8773    9.99546  104.31517    23.9746 1.5502e+00     41.485     0.8295 0.0000e+00
     40.000     8.4571    30.8713    9.97198  104.11625    23.9692 1.5501e+00     40.257     0.8333 0.0000e+00
     39.000     8.4721    30.8621    9.97847  104.24444    23.9608 1.5499e+00     39.422     0.7995 0.0000e+00
     38.000     8.4862    30.8435    9.96897  104.21767    23.9438 1.5502e+00     38.360     0.8473 0.0000e+00
     37.000     8.5051    30.8283    9.96146  104.17371    23.9299 1.5501e+00     37.320     0.8289 0.0000e+00
     36.000     8.5241    30.8057    9.94880  104.09287    23.9094 1.5505e+00     36.243     0.8184 0.0000e+00
     35.000     8.5382    30.7858    9.94825  104.12949    23.8915 1.5503e+00     35.318     0.8001 0.0000e+00
     34.000     8.5490    30.7678    9.94323  104.11278    23.8752 1.5502e+00     34.428     0.7848 0.0000e+00
     33.000     8.5687    30.7511    9.94772  104.20930    23.8601 1.5499e+00     33.330     0.8763 0.0000e+00
     32.000     8.5998    30.7252    9.94393  104.22533    23.8368 1.5498e+00     32.141     0.8171 0.0000e+00
     31.000     8.6323    30.7057    9.94965  104.31476    23.8187 1.5498e+00     31.332     0.8302 0.0000e+00
     30.000     8.6626    30.6793    9.94375  104.29883    23.7931 1.5498e+00     30.415     0.8646 0.0000e+00
     29.000     8.6807    30.6501    9.92739  104.15705    23.7645 1.5499e+00     29.317     0.8672 0.0000e+00
     28.000     8.7127    30.6357    9.92775  104.17968    23.7503 1.5500e+00     28.149     0.8872 0.0000e+00
     27.000     8.7350    30.6171    9.90105  103.91907    23.7322 1.5502e+00     27.256     0.8559 0.0000e+00
     26.000     8.7533    30.5965    9.92278  104.15506    23.7126 1.5500e+00     26.399     0.8623 0.0000e+00
     25.000     8.7821    30.5784    9.91765  104.10219    23.6950 1.5496e+00     25.343     0.8729 0.0000e+00
     24.000     8.8182    30.5454    9.90237  103.93360    23.6642 1.5496e+00     24.115     0.8793 0.0000e+00
     23.000     8.8420    30.5175    9.90253  103.92916    23.6384 1.5498e+00     23.225     0.8739 0.0000e+00
     22.000     8.8711    30.4909    9.92448  104.15260    23.6143 1.5496e+00     22.294     0.8852 0.0000e+00
     21.000     8.8844    30.4487    9.89957  103.88611    23.5758 1.5495e+00     21.133     0.8564 0.0000e+00
     20.000     8.9019    30.4333    9.90322  103.92628    23.5621 1.5494e+00     20.109     0.8809 0.0000e+00
     19.000     8.9176    30.4013    9.89206  103.81826    23.5340 1.5491e+00     18.998     0.8953 0.0000e+00
     18.000     8.9228    30.3812    9.91473  104.06844    23.5169 1.5497e+00     18.250     0.8484 0.0000e+00
     17.000     8.9233    30.3570    9.93241  104.26275    23.4964 1.5498e+00     17.071     0.8349 0.0000e+00
     16.000     8.9222    30.3492    9.94139  104.36337    23.4903 1.5504e+00     16.088     0.8395 0.0000e+00
     15.000     8.9202    30.3443    9.94949  104.45282    23.4866 1.5512e+00     15.072     0.8246 0.0000e+00
     14.000     8.9189    30.3407    9.97041  104.67528    23.4840 1.5535e+00     14.213     0.8233 0.0000e+00
     13.000     8.9179    30.3371   10.03526  105.36033    23.4815 1.5582e+00     13.048     0.8183 0.0000e+00
     12.000     8.9195    30.3336   10.12125  106.26795    23.4788 1.5689e+00     12.092     0.8194 0.0000e+00
     11.000     8.9236    30.3294   10.13439  106.41417    23.4755 1.5920e+00     11.124     0.7869 0.0000e+00
     10.000     8.9301    30.3268   10.19354  107.04391    23.4728 1.6526e+00     10.174     0.8184 0.0000e+00
      9.000     8.9344    30.3245   10.22453  107.37717    23.4700 1.7943e+00      9.060     0.8376 0.0000e+00
      8.000     8.9388    30.3227   10.01390  105.15911    23.4680 2.0798e+00      8.095     0.8391 0.0000e+00
      7.000     8.9429    30.3176    9.93550  104.32390    23.4633 2.7191e+00      7.143     0.8378 0.0000e+00
      6.000     8.9462    30.3096   11.47828  104.39845    23.4565 4.4073e+00      6.163     0.8262 0.0000e+00
      5.000     8.9494    30.3033 -9.990e-29 -9.990e-29    23.4510 7.6761e+00      5.288     0.8036 0.0000e+00
      4.000     8.9521    30.2960 -9.990e-29 -9.990e-29    23.4447 1.5588e+01      4.238     0.7753 0.0000e+00
      3.000     8.9561    30.2930 -9.990e-29 -9.990e-29    23.4421 3.1759e+01      3.467     0.7702 0.0000e+00
      2.000     8.9609    30.2897 -9.990e-29 -9.990e-29    23.4388 6.5337e+01      2.582     0.7638 0.0000e+00
      1.000     8.9651    30.2874 -9.990e-29 -9.990e-29    23.4363 1.8688e+02      1.798     0.8242 0.0000e+00
