* Sea-Bird SBE19plus Data File:
* FileName = C:\data\otf\2007\ctd-07039.hex
* Software Version 1.55
* Temperature SN =  5061
* Conductivity SN =  5061
* System UpLoad Time = Aug 15 2007 16:07:02
* ds
* SeacatPlus V 1.6a  SERIAL NO. 5061    15 Aug 2007  15:31:53
* vbatt = 10.9, vlith =  8.7, ioper =  61.6 ma, ipump =  57.5 ma, 
* iext01 =  95.2 ma
* iext23 =  58.1 ma
* 
* status = not logging
* number of scans to average = 1
* samples = 153039, free = 288466, casts = 154
* mode = profile, minimum cond freq = 3000, pump delay = 60 sec
* autorun = no, ignore magnetic switch = no
* battery type = alkaline, battery cutoff =  7.3 volts
* pressure sensor = strain gauge, range = 870.0
* SBE 38 = no, Gas Tension Device = no
* Ext Volt 0 = yes, Ext Volt 1 = yes, Ext Volt 2 = yes, Ext Volt 3 = yes
* echo commands = yes
* output format = raw HEX
* S>
* 
* SeacatPlus V 1.6a  SERIAL NO. 5061    15 Aug 2007  15:32:18
* temperature:  05-oct-06
*     TA0 = 1.254184e-03
*     TA1 = 2.596730e-04
*     TA2 = 5.165612e-07
*     TA3 = 1.318931e-07
*     TOFFSET = 0.000000e+00
* conductivity:  05-oct-06
*     G = -9.978144e-01
*     H = 1.555200e-01
*     I = -4.839108e-04
*     J = 6.121100e-05
*     CF0 = 2.539936e+03
*     CPCOR = -9.570000e-08
*     CTCOR = 3.250000e-06
*     CSLOPE = 1.000000e+00
* pressure S/N = 2362539, range = 870 psia:  24-aug-06
*     PA0 = 2.171091e-01
*     PA1 = 2.647085e-03
*     PA2 = 1.419397e-11
*     PTCA0 = 5.242437e+05
*     PTCA1 = 7.545345e+00
*     PTCA2 = -1.835354e-01
*     PTCB0 = 2.537125e+01
*     PTCB1 = -1.750000e-03
*     PTCB2 = 0.000000e+00
*     PTEMPA0 = -5.753989e+01
*     PTEMPA1 = 5.235813e+01
*     PTEMPA2 = -4.015521e-02
*     POFFSET = 0.000000e+00
* volt 0: offset = -4.682842e-02, slope = 1.249147e+00
* volt 1: offset = -4.695158e-02, slope = 1.248145e+00
* volt 2: offset = -4.685263e-02, slope = 1.248783e+00
* volt 3: offset = -4.690316e-02, slope = 1.249508e+00
*     EXTFREQSF = 1.000002e+00
* dh
* cast  39 08 Jul 2007 11:27:22 samples 39748 to 40083, avg = 4, stop = mag switch
* S> 
# nquan = 10
# nvalues = 86                          
# units = specified
# name 0 = depSM: Depth [salt water, m]
# name 1 = tv290C: Temperature [ITS-90, deg C]
# name 2 = sal00: Salinity [PSU]
# name 3 = sbeox0Mg/L: Oxygen, SBE 43 [mg/l]
# name 4 = sbeox0PS: Oxygen, SBE 43 [% saturation]
# name 5 = sigma-t00: Density [sigma-t, Kg/m^3 ]
# name 6 = par: PAR/Irradiance, Biospherical/Licor
# name 7 = prdM: Pressure, Strain Gauge [db]
# name 8 = flECO-AFL: Fluorescence, Wetlab ECO-AFL/FL [mg/m^3]
# name 9 = flag: flag
# span 0 =      1.000,     45.000       
# span 1 =     7.9883,     8.0135       
# span 2 =    31.7609,    31.8375       
# span 3 =    8.67127,   11.74796       
# span 4 =   89.95226,  100.58276       
# span 5 =    24.7262,    24.7879       
# span 6 = 2.8840e+00, 4.4158e+02       
# span 7 =      1.363,     44.714       
# span 8 =     0.5371,     1.1181       
# span 9 = 0.0000e+00, 0.0000e+00       
# interval = meters: 1                  
# start_time = Jul 08 2007 11:27:22
# bad_flag = -9.990e-29
# sensor 0 = Frequency 0  temperature, 5061, 05-Oct-06
# sensor 1 = Frequency 1  conductivity, 5061, 05-Oct-06, cpcor = -9.5700e-08
# sensor 2 = Pressure Number
# sensor 3 = Extrnl Volt  0  irradiance (PAR), primary, 4751, 08/10/06
# sensor 4 = Extrnl Volt  1  Oxygen, SBE, primary, 1081, 10/24/06
# sensor 5 = Extrnl Volt  2  WET Labs, ECO_AFL
# sensor 6 = Extrnl Volt  3  userpoly 0, 0627, 10/11/06
# datcnv_date = Oct 15 2007 14:49:44, 5.37e
# datcnv_in = I:\bob d\OTF_GEM\2007\ctd-07039.hex I:\Willette\OTF\CTD\5061.con
# datcnv_skipover = 0
# filter_date = Oct 15 2007 15:02:23, 5.37e
# filter_in = I:\Willette\OTF\CTD\2007\CTD Data\ctd-07039.cnv
# filter_low_pass_tc_A = 1.000
# filter_low_pass_tc_B = 0.150
# filter_low_pass_A_vars = prdM
# filter_low_pass_B_vars =
# loopedit_date = Oct 15 2007 15:06:46, 5.37e
# loopedit_in = I:\Willette\OTF\CTD\2007\CTD Data\ctd-07039.cnv
# loopedit_minVelocity = 0.250                                                                                            
# loopedit_surfaceSoak: minDepth = 5.0, maxDepth = 20, useDeckPress = 1                                                   
# loopedit_excl_bad_scans = yes
# alignctd_date = Oct 15 2007 15:14:14, 5.37e
# alignctd_in = I:\Willette\OTF\CTD\2007\CTD Data\ctd-07039.cnv
# alignctd_adv = tv290C 0.500, sbeox0Mg/L 4.000, sbeox0PS 4.000                                                                                                                                                                      
# binavg_date = Oct 15 2007 15:18:43, 5.37e
# binavg_in = I:\Willette\OTF\CTD\2007\CTD Data\ctd-07039.cnv
# binavg_bintype = meters
# binavg_binsize = 1
# binavg_excl_bad_scans = yes
# binavg_skipover = 0
# binavg_surface_bin = no, min = 0.000, max = 0.000, value = 0.000
# file_type = ascii
*END*
      4.000     8.0034    31.8375    8.67127   89.95226    24.7879 1.8165e+02      4.992     0.6413 0.0000e+00
      5.000     7.9967    31.7609    8.83454   91.62841    24.7262 1.5800e+02      5.967     0.5371 0.0000e+00
      6.000     7.9991    31.8042    8.97355   93.07173    24.7653 1.5302e+02      6.457     0.6304 0.0000e+00
      7.000     8.0059    31.8024    9.06088   93.97820    24.7635 1.3536e+02      7.049     0.7376 0.0000e+00
      8.000     8.0135    31.8023    9.15672   94.97227    24.7635 1.1928e+02      7.632     0.7969 0.0000e+00
      9.000     8.0083    31.8137    9.26777   96.12849    24.7709 1.0438e+02      8.801     0.8704 0.0000e+00
     10.000     8.0029    31.7983    9.36391   97.12427    24.7590 9.2334e+01     10.227     0.8276 0.0000e+00
     11.000     8.0035    31.8022    9.37410   97.22811    24.7627 8.3037e+01     11.046     0.8985 0.0000e+00
     12.000     8.0013    31.8024    9.40310   97.52636    24.7629 7.4458e+01     12.199     0.8702 0.0000e+00
     13.000     8.0018    31.8125    9.42673   97.75963    24.7712 6.6071e+01     13.335     0.8497 0.0000e+00
     14.000     7.9999    31.7994    9.45110   98.01974    24.7609 5.9365e+01     14.647     0.9044 0.0000e+00
     15.000     7.9974    31.7971    9.46509   98.16627    24.7593 5.3194e+01     15.545     0.8655 0.0000e+00
     16.000     7.9935    31.7998    9.47917   98.31108    24.7616 4.6660e+01     16.818     0.8117 0.0000e+00
     17.000     7.9937    31.7812    9.48845   98.40789    24.7475 4.1955e+01     17.923     0.9770 0.0000e+00
     18.000     7.9947    31.7893    9.49015   98.42674    24.7541 3.7265e+01     18.696     0.8476 0.0000e+00
     19.000     7.9960    31.7901    9.49770   98.50391    24.7547 3.3167e+01     19.802     0.7959 0.0000e+00
     20.000 -9.990e-29 -9.990e-29 -9.990e-29 -9.990e-29 -9.990e-29 -9.990e-29 -9.990e-29 -9.990e-29 -9.990e-29
     21.000     7.9959    31.7903    9.50732   98.60293    24.7546 2.7273e+01     21.143     0.8460 0.0000e+00
     22.000     7.9936    31.7897    9.51480   98.68053    24.7540 2.2930e+01     22.706     0.8296 0.0000e+00
     23.000     7.9948    31.7880    9.51259   98.65745    24.7528 2.0930e+01     23.384     0.9613 0.0000e+00
     24.000     7.9939    31.7897    9.52265   98.76256    24.7544 1.8569e+01     24.203     0.8625 0.0000e+00
     25.000     7.9898    31.7895    9.52945   98.83395    24.7542 1.6477e+01     25.389     0.8350 0.0000e+00
     26.000     7.9883    31.7888    9.53303   98.87063    24.7536 1.4916e+01     26.172     0.8079 0.0000e+00
     27.000     7.9891    31.7887    9.53951   98.93921    24.7539 1.3358e+01     27.050     0.8133 0.0000e+00
     28.000     7.9912    31.7901    9.54489   98.99612    24.7554 1.1982e+01     28.037     0.8548 0.0000e+00
     29.000 -9.990e-29 -9.990e-29 -9.990e-29 -9.990e-29 -9.990e-29 -9.990e-29 -9.990e-29 -9.990e-29 -9.990e-29
     30.000     7.9923    31.7915    9.54519   99.00708    24.7564 1.0075e+01     29.466     0.8261 0.0000e+00
     31.000     7.9916    31.7898    9.54868   99.05776    24.7547 8.7994e+00     30.522     0.8277 0.0000e+00
     32.000     7.9916    31.7892    9.54897   99.06462    24.7543 7.9667e+00     31.367     0.8106 0.0000e+00
     33.000     7.9922    31.7898    9.54225   98.99698    24.7548 7.1957e+00     32.295     0.8733 0.0000e+00
     34.000     7.9919    31.7903    9.53717   98.94516    24.7552 6.5218e+00     33.529     0.8676 0.0000e+00
     35.000     7.9913    31.7896    9.53309   98.90407    24.7546 5.9509e+00     35.067     0.7896 0.0000e+00
     36.000     7.9915    31.7899    9.53213   98.89354    24.7550 5.4601e+00     36.371     0.7948 0.0000e+00
     37.000     7.9920    31.7901    9.53234   98.89597    24.7551 5.0268e+00     37.374     0.8173 0.0000e+00
     38.000     7.9923    31.7900    9.52818   98.85289    24.7549 4.6180e+00     38.389     0.8218 0.0000e+00
     39.000     7.9930    31.7900    9.53007   98.87066    24.7549 4.2787e+00     39.330     0.8281 0.0000e+00
     40.000     7.9991    31.7898    9.53098   98.87694    24.7547 3.9651e+00     40.384     0.8485 0.0000e+00
     41.000     8.0041    31.7910    9.53515   98.91839    24.7553 3.7043e+00     41.215     0.8557 0.0000e+00
     42.000     8.0059    31.7899    9.53860   98.95200    24.7535 3.4644e+00     41.932     0.8455 0.0000e+00
     43.000     8.0064    31.7877    9.54306   98.99763    24.7513 3.2478e+00     42.585     0.7984 0.0000e+00
     44.000     8.0065    31.7870    9.55065   99.07709    24.7506 3.0465e+00     43.373     0.7646 0.0000e+00
     45.000     8.0051    31.7872    9.57746   99.35089    24.7509 2.8840e+00     44.714     0.7969 0.0000e+00
     44.000     8.0004    31.7879    9.61566   99.74041    24.7520 3.0507e+00     44.150     0.7813 0.0000e+00
     43.000     7.9998    31.7878    9.61927   99.77517    24.7520 3.2312e+00     43.149     0.7921 0.0000e+00
     42.000     7.9985    31.7883    9.62042   99.78540    24.7526 3.4531e+00     42.228     0.7813 0.0000e+00
     41.000     7.9972    31.7880    9.62734   99.85606    24.7526 3.6904e+00     41.187     0.7775 0.0000e+00
     40.000     7.9981    31.7886    9.63307   99.91519    24.7531 3.9645e+00     40.231     0.8774 0.0000e+00
     39.000     7.9983    31.7886    9.63460   99.93019    24.7529 4.2795e+00     39.240     0.8210 0.0000e+00
     38.000     7.9968    31.7878    9.62909   99.87265    24.7523 4.6365e+00     38.271     0.8072 0.0000e+00
     37.000     7.9966    31.7883    9.62650   99.84521    24.7529 5.0338e+00     37.346     0.7995 0.0000e+00
     36.000     7.9958    31.7889    9.63205   99.90059    24.7534 5.4983e+00     36.256     0.8458 0.0000e+00
     35.000     7.9953    31.7885    9.63742   99.95665    24.7532 6.0198e+00     35.151     0.8478 0.0000e+00
     34.000     7.9952    31.7891    9.63395   99.92165    24.7538 6.5934e+00     34.190     0.8151 0.0000e+00
     33.000     7.9947    31.7885    9.63264   99.90920    24.7532 7.2185e+00     33.413     0.8448 0.0000e+00
     32.000     7.9952    31.7892    9.62714   99.85431    24.7540 7.9989e+00     31.924     0.8854 0.0000e+00
     31.000     7.9946    31.7887    9.63162   99.90157    24.7534 8.8207e+00     31.310     0.8881 0.0000e+00
     30.000     7.9942    31.7890    9.63848   99.97191    24.7538 9.7790e+00     30.269     0.7619 0.0000e+00
     29.000     7.9932    31.7894    9.64672  100.05566    24.7541 1.0870e+01     29.177     0.8505 0.0000e+00
     28.000     7.9934    31.7893    9.64907  100.08115    24.7543 1.2088e+01     28.168     0.8413 0.0000e+00
     27.000     7.9938    31.7896    9.64920  100.08418    24.7544 1.3491e+01     27.162     0.7740 0.0000e+00
     26.000     7.9942    31.7895    9.64825  100.07263    24.7543 1.5055e+01     26.165     0.8172 0.0000e+00
     25.000     7.9948    31.7899    9.65147  100.10413    24.7545 1.6810e+01     25.226     0.8246 0.0000e+00
     24.000     7.9953    31.7899    9.64279  100.01406    24.7544 1.8838e+01     24.212     1.1181 0.0000e+00
     23.000     7.9958    31.7897    9.64687  100.05821    24.7542 2.1181e+01     23.250     0.8651 0.0000e+00
     22.000     7.9950    31.7893    9.64841  100.07789    24.7538 2.3848e+01     22.175     0.8934 0.0000e+00
     21.000     7.9944    31.7894    9.64953  100.09136    24.7540 2.6722e+01     21.253     0.9109 0.0000e+00
     20.000     7.9951    31.7892    9.64370  100.03332    24.7539 3.0114e+01     20.157     0.7074 0.0000e+00
     19.000     7.9960    31.7897    9.64383  100.03351    24.7543 3.3823e+01     19.174     0.8304 0.0000e+00
     18.000     7.9951    31.7892    9.64544  100.05124    24.7537 3.8082e+01     18.181     0.8471 0.0000e+00
     17.000     7.9940    31.7890    9.65622  100.16314    24.7536 4.2667e+01     17.066     0.8118 0.0000e+00
     16.000     7.9941    31.7893    9.65495  100.14858    24.7540 4.7961e+01     16.178     0.8865 0.0000e+00
     15.000     7.9950    31.7897    9.66374  100.23664    24.7543 5.3987e+01     15.255     0.7971 0.0000e+00
     14.000     7.9968    31.7897    9.65905  100.18741    24.7542 6.0449e+01     14.057     0.7477 0.0000e+00
     13.000     7.9976    31.7897    9.66371  100.23401    24.7540 6.7751e+01     13.149     1.0531 0.0000e+00
     12.000     7.9985    31.7895    9.66495  100.24620    24.7537 7.6457e+01     12.096     1.0258 0.0000e+00
     11.000     7.9979    31.7893    9.66177  100.21281    24.7535 8.6811e+01     11.157     0.7987 0.0000e+00
     10.000     7.9984    31.7893    9.66163  100.21146    24.7535 9.8401e+01     10.141     0.8680 0.0000e+00
      9.000     7.9984    31.7896    9.66178  100.21209    24.7537 1.0997e+02      9.189     0.8793 0.0000e+00
      8.000     7.9979    31.7894    9.67421  100.34187    24.7535 1.2296e+02      8.206     0.8473 0.0000e+00
      7.000     7.9965    31.7895    9.68179  100.42120    24.7537 1.3795e+02      7.285     0.8435 0.0000e+00
      6.000     7.9964    31.7888    9.69615  100.58276    24.7533 1.5225e+02      6.182     0.7800 0.0000e+00
      5.000     7.9955    31.7888    9.63571   99.96126    24.7534 1.6957e+02      5.436     0.8514 0.0000e+00
      4.000     7.9953    31.7889   10.63091   98.92173    24.7536 1.8144e+02      4.372     0.6982 0.0000e+00
      3.000     7.9951    31.7887   11.54635   99.87725    24.7534 1.9531e+02      3.391     0.6637 0.0000e+00
      2.000     7.9952    31.7886   11.74048  100.33486    24.7534 2.1892e+02      2.267     0.6221 0.0000e+00
      1.000     7.9993    31.7893   11.74796  100.45547    24.7538 4.4158e+02      1.363     0.5508 0.0000e+00
