* Sea-Bird SBE19plus Data File:
* FileName = C:\data\otf\2007\ctd-07011.hex
* Software Version 1.55
* Temperature SN =  5061
* Conductivity SN =  5061
* System UpLoad Time = Aug 15 2007 15:41:02
* ds
* SeacatPlus V 1.6a  SERIAL NO. 5061    15 Aug 2007  15:31:53
* vbatt = 10.9, vlith =  8.7, ioper =  61.6 ma, ipump =  57.5 ma, 
* iext01 =  95.2 ma
* iext23 =  58.1 ma
* 
* status = not logging
* number of scans to average = 1
* samples = 153039, free = 288466, casts = 154
* mode = profile, minimum cond freq = 3000, pump delay = 60 sec
* autorun = no, ignore magnetic switch = no
* battery type = alkaline, battery cutoff =  7.3 volts
* pressure sensor = strain gauge, range = 870.0
* SBE 38 = no, Gas Tension Device = no
* Ext Volt 0 = yes, Ext Volt 1 = yes, Ext Volt 2 = yes, Ext Volt 3 = yes
* echo commands = yes
* output format = raw HEX
* S>
* 
* SeacatPlus V 1.6a  SERIAL NO. 5061    15 Aug 2007  15:32:18
* temperature:  05-oct-06
*     TA0 = 1.254184e-03
*     TA1 = 2.596730e-04
*     TA2 = 5.165612e-07
*     TA3 = 1.318931e-07
*     TOFFSET = 0.000000e+00
* conductivity:  05-oct-06
*     G = -9.978144e-01
*     H = 1.555200e-01
*     I = -4.839108e-04
*     J = 6.121100e-05
*     CF0 = 2.539936e+03
*     CPCOR = -9.570000e-08
*     CTCOR = 3.250000e-06
*     CSLOPE = 1.000000e+00
* pressure S/N = 2362539, range = 870 psia:  24-aug-06
*     PA0 = 2.171091e-01
*     PA1 = 2.647085e-03
*     PA2 = 1.419397e-11
*     PTCA0 = 5.242437e+05
*     PTCA1 = 7.545345e+00
*     PTCA2 = -1.835354e-01
*     PTCB0 = 2.537125e+01
*     PTCB1 = -1.750000e-03
*     PTCB2 = 0.000000e+00
*     PTEMPA0 = -5.753989e+01
*     PTEMPA1 = 5.235813e+01
*     PTEMPA2 = -4.015521e-02
*     POFFSET = 0.000000e+00
* volt 0: offset = -4.682842e-02, slope = 1.249147e+00
* volt 1: offset = -4.695158e-02, slope = 1.248145e+00
* volt 2: offset = -4.685263e-02, slope = 1.248783e+00
* volt 3: offset = -4.690316e-02, slope = 1.249508e+00
*     EXTFREQSF = 1.000002e+00
* dh
* cast  11 04 Jul 2007 06:42:43 samples 10008 to 11383, avg = 1, stop = mag switch
* S> 
# nquan = 10
# nvalues = 163                         
# units = specified
# name 0 = depSM: Depth [salt water, m]
# name 1 = tv290C: Temperature [ITS-90, deg C]
# name 2 = sal00: Salinity [PSU]
# name 3 = sbeox0Mg/L: Oxygen, SBE 43 [mg/l]
# name 4 = sbeox0PS: Oxygen, SBE 43 [% saturation]
# name 5 = sigma-t00: Density [sigma-t, Kg/m^3 ]
# name 6 = par: PAR/Irradiance, Biospherical/Licor
# name 7 = prdM: Pressure, Strain Gauge [db]
# name 8 = flECO-AFL: Fluorescence, Wetlab ECO-AFL/FL [mg/m^3]
# name 9 = flag: flag
# span 0 =      1.000,     84.000       
# span 1 =     7.7593,     8.4142       
# span 2 =    30.9191,    31.4956       
# span 3 =    8.44336,   11.42285       
# span 4 =   87.87197,  107.30858       
# span 5 =    24.0118,    24.5567       
# span 6 = 1.5469e+00, 9.1524e+01       
# span 7 =      1.098,     84.600       
# span 8 =     0.5984,     1.1013       
# span 9 = 0.0000e+00, 0.0000e+00       
# interval = meters: 1                  
# start_time = Jul 04 2007 06:42:43
# bad_flag = -9.990e-29
# sensor 0 = Frequency 0  temperature, 5061, 05-Oct-06
# sensor 1 = Frequency 1  conductivity, 5061, 05-Oct-06, cpcor = -9.5700e-08
# sensor 2 = Pressure Number
# sensor 3 = Extrnl Volt  0  irradiance (PAR), primary, 4751, 08/10/06
# sensor 4 = Extrnl Volt  1  Oxygen, SBE, primary, 1081, 10/24/06
# sensor 5 = Extrnl Volt  2  WET Labs, ECO_AFL
# sensor 6 = Extrnl Volt  3  userpoly 0, 0627, 10/11/06
# datcnv_date = Oct 15 2007 14:49:42, 5.37e
# datcnv_in = I:\bob d\OTF_GEM\2007\ctd-07011.hex I:\Willette\OTF\CTD\5061.con
# datcnv_skipover = 0
# filter_date = Oct 15 2007 15:02:18, 5.37e
# filter_in = I:\Willette\OTF\CTD\2007\CTD Data\ctd-07011.cnv
# filter_low_pass_tc_A = 1.000
# filter_low_pass_tc_B = 0.150
# filter_low_pass_A_vars = prdM
# filter_low_pass_B_vars =
# loopedit_date = Oct 15 2007 15:06:42, 5.37e
# loopedit_in = I:\Willette\OTF\CTD\2007\CTD Data\ctd-07011.cnv
# loopedit_minVelocity = 0.250                                                                                            
# loopedit_surfaceSoak: minDepth = 5.0, maxDepth = 20, useDeckPress = 1                                                   
# loopedit_excl_bad_scans = yes
# alignctd_date = Oct 15 2007 15:14:11, 5.37e
# alignctd_in = I:\Willette\OTF\CTD\2007\CTD Data\ctd-07011.cnv
# alignctd_adv = tv290C 0.500, sbeox0Mg/L 4.000, sbeox0PS 4.000                                                                                                                                                                      
# binavg_date = Oct 15 2007 15:18:40, 5.37e
# binavg_in = I:\Willette\OTF\CTD\2007\CTD Data\ctd-07011.cnv
# binavg_bintype = meters
# binavg_binsize = 1
# binavg_excl_bad_scans = yes
# binavg_skipover = 0
# binavg_surface_bin = no, min = 0.000, max = 0.000, value = 0.000
# file_type = ascii
*END*
      5.000     8.4142    30.9241    8.97291   93.40809    24.0148 2.1007e+01      4.996     0.5984 0.0000e+00
      6.000     8.4037    30.9369    8.87646   92.39554    24.0263 1.7131e+01      6.007     0.6274 0.0000e+00
      7.000     8.3902    30.9488    8.79872   91.59155    24.0377 1.3883e+01      7.029     0.6124 0.0000e+00
      8.000     8.3852    30.9608    8.65783   90.11487    24.0483 1.1754e+01      8.049     0.6132 0.0000e+00
      9.000     8.3815    30.9606    8.47819   88.24053    24.0483 9.7707e+00      9.088     0.6174 0.0000e+00
     10.000     8.3780    30.9692    8.44336   87.87197    24.0558 8.1128e+00     10.110     0.6980 0.0000e+00
     11.000     8.3747    30.9661    8.72239   90.77129    24.0538 6.7822e+00     11.156     0.6590 0.0000e+00
     12.000     8.3744    30.9647    8.88979   92.51214    24.0528 5.7135e+00     12.153     0.6980 0.0000e+00
     13.000     8.3707    30.9707    8.97786   93.42860    24.0580 4.8725e+00     13.138     0.6523 0.0000e+00
     14.000     8.3711    30.9673    9.01554   93.82068    24.0554 4.2010e+00     14.189     0.6552 0.0000e+00
     15.000     8.3702    30.9694    9.03687   94.04967    24.0571 3.6642e+00     15.104     0.6551 0.0000e+00
     16.000     8.3694    30.9723    9.15269   95.25809    24.0595 3.2114e+00     16.189     0.6710 0.0000e+00
     17.000     8.3693    30.9753    9.16643   95.40352    24.0619 2.8827e+00     17.186     0.6873 0.0000e+00
     18.000     8.3706    30.9838    9.09353   94.64088    24.0684 2.6203e+00     18.107     0.6953 0.0000e+00
     19.000     8.3712    30.9851    9.31805   96.96419    24.0693 2.3958e+00     19.191     0.7343 0.0000e+00
     20.000     8.3702    30.9839    9.55873   99.46815    24.0683 2.2265e+00     20.252     0.7330 0.0000e+00
     21.000     8.3609    30.9963    9.65797  100.50206    24.0790 2.0940e+00     21.133     0.7059 0.0000e+00
     22.000     8.3590    31.0015    9.73406  101.29169    24.0839 1.9824e+00     22.215     0.7483 0.0000e+00
     23.000     8.3600    30.9998    9.77756  101.74168    24.0825 1.8950e+00     23.235     0.7659 0.0000e+00
     24.000     8.3593    31.0002    9.80476  102.02357    24.0828 1.8259e+00     24.231     0.6620 0.0000e+00
     25.000     8.3572    31.0034    9.83318  102.31305    24.0856 1.7714e+00     25.286     0.6971 0.0000e+00
     26.000     8.3563    31.0035    9.84056  102.36799    24.0858 1.7294e+00     26.263     0.7302 0.0000e+00
     27.000     8.3548    31.0064    9.85458  102.51287    24.0883 1.6941e+00     27.275     0.6968 0.0000e+00
     28.000     8.3475    31.0118    9.86117  102.57479    24.0930 1.6659e+00     28.248     0.7015 0.0000e+00
     29.000     8.3364    31.0246    9.87710  102.71702    24.1048 1.6420e+00     29.320     0.7078 0.0000e+00
     30.000     8.3397    31.0256    9.89256  102.83674    24.1059 1.6249e+00     30.281     0.7341 0.0000e+00
     31.000     8.3340    31.0239    9.90810  102.97865    24.1046 1.6105e+00     31.325     0.7247 0.0000e+00
     32.000     8.3233    31.0290    9.91442  103.01278    24.1099 1.5996e+00     32.318     0.7029 0.0000e+00
     33.000     8.3039    31.0319    9.92083  103.00235    24.1144 1.5899e+00     33.365     0.6873 0.0000e+00
     34.000     8.2947    31.0390    9.92913  103.06658    24.1221 1.5824e+00     34.381     0.6929 0.0000e+00
     35.000     8.2911    31.0409    9.93715  103.08262    24.1241 1.5768e+00     35.340     0.6817 0.0000e+00
     36.000     8.2557    31.0431    9.94443  103.06305    24.1284 1.5722e+00     36.334     0.6835 0.0000e+00
     37.000     8.2362    31.0680    9.94632  103.06758    24.1530 1.5681e+00     37.319     0.6705 0.0000e+00
     38.000     8.2170    31.0729    9.95897  103.19358    24.1587 1.5648e+00     38.367     0.7054 0.0000e+00
     39.000     8.1684    31.0762    9.95794  103.17386    24.1657 1.5623e+00     39.348     0.7911 0.0000e+00
     40.000     8.1452    31.1080    9.95632  103.14880    24.1973 1.5601e+00     40.339     0.7608 0.0000e+00
     41.000     8.1408    31.1163    9.95595  103.14210    24.2051 1.5583e+00     41.466     0.7575 0.0000e+00
     42.000     8.1381    31.1172    9.97749  103.35997    24.2061 1.5574e+00     42.411     0.6967 0.0000e+00
     43.000     8.1305    31.1269    9.97847  103.36963    24.2147 1.5564e+00     43.341     0.7183 0.0000e+00
     44.000     8.1292    31.1306    9.98101  103.38589    24.2181 1.5553e+00     44.459     0.7195 0.0000e+00
     45.000     8.1270    31.1298    9.98311  103.37456    24.2177 1.5545e+00     45.410     0.7297 0.0000e+00
     46.000     8.1263    31.1298    9.98627  103.35469    24.2179 1.5542e+00     46.470     0.7256 0.0000e+00
     47.000     8.1207    31.1359    9.99566  103.41718    24.2232 1.5543e+00     47.394     0.7157 0.0000e+00
     48.000     8.1053    31.1388   10.03729  103.80571    24.2263 1.5652e+00     48.548     0.7596 0.0000e+00
     49.000     8.0798    31.1539    9.99831  103.36944    24.2420 1.5579e+00     49.475     0.6791 0.0000e+00
     50.000     8.0614    31.1653    9.99599  103.32335    24.2538 1.5547e+00     50.424     0.6955 0.0000e+00
     51.000     8.0423    31.1776    9.98223  103.15102    24.2661 1.5532e+00     51.480     0.6821 0.0000e+00
     52.000     8.0206    31.1957    9.99921  103.28748    24.2838 1.5526e+00     52.532     0.7336 0.0000e+00
     53.000     8.0081    31.2043    9.99265  103.19926    24.2921 1.5524e+00     53.458     0.7379 0.0000e+00
     54.000     7.9906    31.2201   10.01393  103.37493    24.3071 1.5520e+00     54.506     0.7826 0.0000e+00
     55.000     7.9684    31.2380    9.98622  103.01194    24.3239 1.5521e+00     55.545     0.7228 0.0000e+00
     56.000     7.9540    31.2549    9.99780  103.10348    24.3397 1.5522e+00     56.565     0.7402 0.0000e+00
     57.000     7.9276    31.2751   10.00243  103.12490    24.3580 1.5516e+00     57.497     0.7475 0.0000e+00
     58.000     7.8810    31.3240   10.00546  103.12637    24.4026 1.5518e+00     58.523     0.7625 0.0000e+00
     59.000     7.8652    31.3551   10.02336  103.30499    24.4314 1.5514e+00     59.618     0.7415 0.0000e+00
     60.000     7.8428    31.3714   10.01710  103.23442    24.4458 1.5516e+00     60.530     0.7996 0.0000e+00
     61.000     7.8308    31.3936   10.01854  103.24487    24.4664 1.5515e+00     61.571     0.7965 0.0000e+00
     62.000     7.8282    31.3974   10.01899  103.22510    24.4698 1.5517e+00     62.633     0.7560 0.0000e+00
     63.000     7.8235    31.4028   10.01971  103.20566    24.4747 1.5517e+00     63.583     0.8110 0.0000e+00
     64.000     7.8183    31.4060   10.02889  103.28078    24.4774 1.5518e+00     64.580     0.7775 0.0000e+00
     65.000     7.7974    31.4313   10.04342  103.44415    24.4999 1.5514e+00     65.589     0.7831 0.0000e+00
     66.000     7.7783    31.4586   10.04751  103.48963    24.5243 1.5515e+00     66.710     0.8423 0.0000e+00
     67.000     7.7790    31.4660   10.05503  103.55686    24.5312 1.5512e+00     67.596     0.8857 0.0000e+00
     68.000     7.7877    31.4495   10.05289  103.52344    24.5166 1.5513e+00     68.623     0.8740 0.0000e+00
     69.000     7.7828    31.4539   10.06860  103.68593    24.5202 1.5512e+00     69.675     0.8317 0.0000e+00
     70.000     7.7719    31.4711   10.07083  103.70784    24.5355 1.5507e+00     70.623     0.8976 0.0000e+00
     71.000     7.7725    31.4711   10.07338  103.72930    24.5357 1.5510e+00     71.697     0.8613 0.0000e+00
     72.000     7.7707    31.4726   10.07831  103.78168    24.5368 1.5510e+00     72.696     0.8730 0.0000e+00
     73.000     7.7679    31.4780   10.08920  103.89037    24.5416 1.5510e+00     73.692     0.8954 0.0000e+00
     74.000     7.7691    31.4763   10.08585  103.85487    24.5402 1.5506e+00     74.795     0.8472 0.0000e+00
     75.000     7.7669    31.4790   10.07965  103.79245    24.5424 1.5506e+00     75.718     0.8599 0.0000e+00
     76.000     7.7645    31.4849   10.07919  103.79190    24.5477 1.5505e+00     76.766     0.8894 0.0000e+00
     77.000     7.7670    31.4801   10.08867  103.88354    24.5435 1.5508e+00     77.758     0.9578 0.0000e+00
     78.000     7.7679    31.4799   10.09457  103.94281    24.5434 1.5509e+00     78.777     0.9362 0.0000e+00
     79.000     7.7689    31.4760   10.08375  103.83337    24.5399 1.5509e+00     79.727     0.8857 0.0000e+00
     80.000     7.7649    31.4826   10.09298  103.92360    24.5456 1.5506e+00     80.771     0.9942 0.0000e+00
     81.000     7.7635    31.4863   10.09758  103.96921    24.5488 1.5506e+00     81.773     0.8687 0.0000e+00
     82.000     7.7641    31.4845   10.07008  103.68672    24.5472 1.5506e+00     82.724     0.9431 0.0000e+00
     83.000     7.7594    31.4952   10.09740  103.96786    24.5563 1.5503e+00     83.705     1.0462 0.0000e+00
     84.000     7.7593    31.4956   10.09884  103.98230    24.5567 1.5469e+00     84.600     1.1001 0.0000e+00
     83.000     7.7597    31.4954   10.10423  104.03894    24.5565 1.5504e+00     83.699     1.1013 0.0000e+00
     82.000     7.7608    31.4925   10.10940  104.09110    24.5541 1.5526e+00     82.754     1.0972 0.0000e+00
     81.000     7.7617    31.4900   10.11411  104.14025    24.5520 1.5510e+00     81.769     1.0193 0.0000e+00
     80.000     7.7598    31.4917   10.10705  104.07195    24.5535 1.5506e+00     80.769     1.0091 0.0000e+00
     79.000     7.7611    31.4919   10.11314  104.13851    24.5537 1.5501e+00     79.763     1.0218 0.0000e+00
     78.000     7.7648    31.4850   10.10866  104.09758    24.5478 1.5502e+00     78.756     0.9382 0.0000e+00
     77.000     7.7677    31.4798   10.10974  104.11053    24.5433 1.5503e+00     77.767     0.9585 0.0000e+00
     76.000     7.7719    31.4729   10.10320  104.04572    24.5373 1.5500e+00     76.723     0.8716 0.0000e+00
     75.000     7.7735    31.4701   10.10895  104.10555    24.5348 1.5500e+00     75.742     0.8844 0.0000e+00
     74.000     7.7755    31.4662   10.12559  104.27905    24.5313 1.5501e+00     74.700     0.8380 0.0000e+00
     73.000     7.7756    31.4658   10.13052  104.32969    24.5310 1.5499e+00     73.720     0.8494 0.0000e+00
     72.000     7.7776    31.4630   10.13670  104.39532    24.5286 1.5501e+00     72.694     0.9294 0.0000e+00
     71.000     7.7767    31.4641   10.13928  104.42556    24.5295 1.5496e+00     71.691     0.9331 0.0000e+00
     70.000     7.7804    31.4585   10.14052  104.43703    24.5247 1.5498e+00     70.675     0.8526 0.0000e+00
     69.000     7.7818    31.4563   10.13994  104.43511    24.5228 1.5496e+00     69.695     0.8421 0.0000e+00
     68.000     7.7803    31.4579   10.13594  104.40567    24.5241 1.5497e+00     68.643     0.8193 0.0000e+00
     67.000     7.7879    31.4490   10.12850  104.34106    24.5163 1.5498e+00     67.649     0.8875 0.0000e+00
     66.000     7.7945    31.4401   10.13174  104.38980    24.5085 1.5495e+00     66.645     0.7947 0.0000e+00
     65.000     7.8052    31.4268   10.12479  104.33429    24.4966 1.5494e+00     65.600     0.8754 0.0000e+00
     64.000     7.8134    31.4157   10.12938  104.40209    24.4866 1.5496e+00     64.582     0.7821 0.0000e+00
     63.000     7.8238    31.4040   10.13947  104.50644    24.4763 1.5494e+00     63.601     0.7340 0.0000e+00
     62.000     7.8334    31.3903   10.14114  104.53868    24.4639 1.5494e+00     62.618     0.7509 0.0000e+00
     61.000     7.8333    31.3904   10.12917  104.45104    24.4638 1.5495e+00     61.579     0.7406 0.0000e+00
     60.000     7.8512    31.3733   10.14070  104.58732    24.4487 1.5493e+00     60.533     0.7481 0.0000e+00
     59.000     7.8667    31.3534   10.14925  104.69231    24.4306 1.5493e+00     59.559     0.7377 0.0000e+00
     58.000     7.8744    31.3428   10.14229  104.66815    24.4209 1.5493e+00     58.578     0.6922 0.0000e+00
     57.000     7.8857    31.3335   10.13758  104.68661    24.4124 1.5495e+00     57.546     0.6945 0.0000e+00
     56.000     7.9207    31.3004   10.14493  104.79465    24.3825 1.5491e+00     56.543     0.6645 0.0000e+00
     55.000     7.9566    31.2585   10.14167  104.78194    24.3439 1.5495e+00     55.546     0.6667 0.0000e+00
     54.000     7.9743    31.2388   10.12985  104.69045    24.3254 1.5493e+00     54.535     0.6774 0.0000e+00
     53.000     7.9888    31.2265   10.12552  104.69039    24.3138 1.5496e+00     53.476     0.6921 0.0000e+00
     52.000     8.0062    31.2133   10.12937  104.77312    24.3011 1.5493e+00     52.516     0.6873 0.0000e+00
     51.000     8.0309    31.1956   10.15235  105.05624    24.2839 1.5497e+00     51.498     0.6696 0.0000e+00
     50.000     8.0562    31.1786   10.15464  105.12077    24.2670 1.5500e+00     50.475     0.7044 0.0000e+00
     49.000     8.0779    31.1654   10.14648  105.06135    24.2534 1.5500e+00     49.466     0.7055 0.0000e+00
     48.000     8.0926    31.1565   10.14240  105.03762    24.2440 1.5503e+00     48.480     0.6886 0.0000e+00
     47.000     8.1072    31.1500   10.14577  105.08922    24.2368 1.5505e+00     47.433     0.6789 0.0000e+00
     46.000     8.1131    31.1468   10.13673  105.00619    24.2333 1.5510e+00     46.444     0.6749 0.0000e+00
     45.000     8.1227    31.1384   10.14188  105.06108    24.2254 1.5515e+00     45.360     0.6741 0.0000e+00
     44.000     8.1267    31.1279   10.14025  105.04459    24.2165 1.5523e+00     44.416     0.6504 0.0000e+00
     43.000     8.1276    31.1236   10.13988  105.05532    24.2129 1.5531e+00     43.361     0.6795 0.0000e+00
     42.000     8.1280    31.1220   10.15642  105.24724    24.2116 1.5544e+00     42.340     0.7050 0.0000e+00
     41.000     8.1313    31.1214   10.16671  105.37064    24.2109 1.5555e+00     41.356     0.6858 0.0000e+00
     40.000     8.1390    31.1181   10.16224  105.36263    24.2074 1.5573e+00     40.376     0.6777 0.0000e+00
     39.000     8.1473    31.1125   10.15791  105.33620    24.2018 1.5596e+00     39.399     0.6700 0.0000e+00
     38.000     8.1575    31.1095   10.15863  105.34522    24.1984 1.5622e+00     38.388     0.6406 0.0000e+00
     37.000     8.1764    31.1013   10.16672  105.43251    24.1892 1.5643e+00     37.363     0.6870 0.0000e+00
     36.000     8.1827    31.0934   10.16788  105.45316    24.1814 1.5685e+00     36.347     0.6465 0.0000e+00
     35.000     8.1820    31.0923   10.16775  105.45664    24.1805 1.5742e+00     35.401     0.6743 0.0000e+00
     34.000     8.1862    31.0927   10.16616  105.44783    24.1805 1.5815e+00     34.343     0.7019 0.0000e+00
     33.000     8.1897    31.0906   10.16845  105.48083    24.1782 1.5897e+00     33.316     0.6768 0.0000e+00
     32.000     8.1928    31.0914   10.16706  105.54560    24.1785 1.6030e+00     32.341     0.6749 0.0000e+00
     31.000     8.2016    31.0899   10.16814  105.65764    24.1766 1.6140e+00     31.309     0.6695 0.0000e+00
     30.000     8.2499    31.0720   10.17808  105.76311    24.1566 1.6320e+00     30.300     0.6969 0.0000e+00
     29.000     8.2942    31.0396   10.15885  105.48163    24.1231 1.6535e+00     29.321     0.6852 0.0000e+00
     28.000     8.2397    31.0637   10.14077  105.27944    24.1492 1.6808e+00     28.247     0.6934 0.0000e+00
     27.000     8.2383    31.0675   10.14909  105.36556    24.1531 1.7153e+00     27.310     0.6433 0.0000e+00
     26.000     8.2435    31.0644   10.14451  105.40871    24.1503 1.7595e+00     26.245     0.6413 0.0000e+00
     25.000     8.2830    31.0453   10.14041  105.40627    24.1299 1.8151e+00     25.219     0.6671 0.0000e+00
     24.000     8.2990    31.0339   10.13998  105.45741    24.1183 1.8818e+00     24.228     0.6677 0.0000e+00
     23.000     8.3290    31.0198   10.14918  105.58108    24.1032 1.9657e+00     23.204     0.6622 0.0000e+00
     22.000     8.3430    31.0082   10.15576  105.64334    24.0917 2.0732e+00     22.196     0.6702 0.0000e+00
     21.000     8.3479    31.0030   10.15708  105.60772    24.0866 2.1986e+00     21.170     0.6648 0.0000e+00
     20.000     8.3300    31.0073   10.16208  105.64489    24.0919 2.3637e+00     20.192     0.7174 0.0000e+00
     19.000     8.3135    31.0172   10.17244  105.77514    24.1026 2.5623e+00     19.129     0.7315 0.0000e+00
     18.000     8.3137    31.0197   10.17714  105.82723    24.1049 2.8203e+00     18.184     0.6698 0.0000e+00
     17.000     8.3270    31.0071   10.18530  105.90982    24.0932 3.1427e+00     17.100     0.7176 0.0000e+00
     16.000     8.3275    31.0024   10.18829  105.94387    24.0892 3.5396e+00     16.177     0.6728 0.0000e+00
     15.000     8.3267    31.0015   10.20737  106.16391    24.0886 4.0428e+00     15.141     0.6733 0.0000e+00
     14.000     8.3287    31.0000   10.20645  106.17513    24.0873 4.6926e+00     14.096     0.6826 0.0000e+00
     13.000     8.3397    30.9935   10.21917  106.31440    24.0810 5.4953e+00     13.154     0.6891 0.0000e+00
     12.000     8.3508    30.9834   10.22494  106.37894    24.0713 6.5038e+00     12.087     0.7716 0.0000e+00
     11.000     8.3547    30.9792   10.22045  106.33570    24.0671 7.7644e+00     11.119     0.7236 0.0000e+00
     10.000     8.3570    30.9773   10.23583  106.50036    24.0654 9.3949e+00     10.099     0.7360 0.0000e+00
      9.000     8.3591    30.9757   10.24849  106.64319    24.0638 1.1416e+01      9.053     0.7145 0.0000e+00
      8.000     8.3616    30.9731   10.24136  106.58310    24.0614 1.3918e+01      8.106     0.7150 0.0000e+00
      7.000     8.3681    30.9683   10.20556  106.22746    24.0569 1.7143e+01      7.049     0.7072 0.0000e+00
      6.000     8.3775    30.9592   10.17040  105.88031    24.0486 2.1089e+01      6.056     0.6595 0.0000e+00
      5.000     8.3866    30.9479   10.17587  105.94670    24.0382 2.5559e+01      5.047     0.6705 0.0000e+00
      4.000     8.3975    30.9374   10.21708  106.38375    24.0286 3.1198e+01      4.033     0.6228 0.0000e+00
      3.000     8.4028    30.9303   10.26130  106.85324    24.0219 3.7599e+01      3.019     0.6423 0.0000e+00
      2.000     8.4076    30.9252   10.41314  107.30858    24.0173 4.6313e+01      2.050     0.6366 0.0000e+00
      1.000     8.4133    30.9191   11.42285  106.57910    24.0118 9.1524e+01      1.098     0.7249 0.0000e+00
