* Sea-Bird SBE19plus Data File:
* FileName = C:\data\otf\2007\ctd-07136.hex
* Software Version 1.55
* Temperature SN =  5061
* Conductivity SN =  5061
* System UpLoad Time = Aug 15 2007 17:30:19
* ds
* SeacatPlus V 1.6a  SERIAL NO. 5061    15 Aug 2007  15:31:53
* vbatt = 10.9, vlith =  8.7, ioper =  61.6 ma, ipump =  57.5 ma, 
* iext01 =  95.2 ma
* iext23 =  58.1 ma
* 
* status = not logging
* number of scans to average = 1
* samples = 153039, free = 288466, casts = 154
* mode = profile, minimum cond freq = 3000, pump delay = 60 sec
* autorun = no, ignore magnetic switch = no
* battery type = alkaline, battery cutoff =  7.3 volts
* pressure sensor = strain gauge, range = 870.0
* SBE 38 = no, Gas Tension Device = no
* Ext Volt 0 = yes, Ext Volt 1 = yes, Ext Volt 2 = yes, Ext Volt 3 = yes
* echo commands = yes
* output format = raw HEX
* S>
* 
* SeacatPlus V 1.6a  SERIAL NO. 5061    15 Aug 2007  15:32:18
* temperature:  05-oct-06
*     TA0 = 1.254184e-03
*     TA1 = 2.596730e-04
*     TA2 = 5.165612e-07
*     TA3 = 1.318931e-07
*     TOFFSET = 0.000000e+00
* conductivity:  05-oct-06
*     G = -9.978144e-01
*     H = 1.555200e-01
*     I = -4.839108e-04
*     J = 6.121100e-05
*     CF0 = 2.539936e+03
*     CPCOR = -9.570000e-08
*     CTCOR = 3.250000e-06
*     CSLOPE = 1.000000e+00
* pressure S/N = 2362539, range = 870 psia:  24-aug-06
*     PA0 = 2.171091e-01
*     PA1 = 2.647085e-03
*     PA2 = 1.419397e-11
*     PTCA0 = 5.242437e+05
*     PTCA1 = 7.545345e+00
*     PTCA2 = -1.835354e-01
*     PTCB0 = 2.537125e+01
*     PTCB1 = -1.750000e-03
*     PTCB2 = 0.000000e+00
*     PTEMPA0 = -5.753989e+01
*     PTEMPA1 = 5.235813e+01
*     PTEMPA2 = -4.015521e-02
*     POFFSET = 0.000000e+00
* volt 0: offset = -4.682842e-02, slope = 1.249147e+00
* volt 1: offset = -4.695158e-02, slope = 1.248145e+00
* volt 2: offset = -4.685263e-02, slope = 1.248783e+00
* volt 3: offset = -4.690316e-02, slope = 1.249508e+00
*     EXTFREQSF = 1.000002e+00
* dh
* cast 136 27 Jul 2007 08:40:01 samples 133669 to 134932, avg = 1, stop = mag switch
* S> 
# nquan = 10
# nvalues = 153                         
# units = specified
# name 0 = depSM: Depth [salt water, m]
# name 1 = tv290C: Temperature [ITS-90, deg C]
# name 2 = sal00: Salinity [PSU]
# name 3 = sbeox0Mg/L: Oxygen, SBE 43 [mg/l]
# name 4 = sbeox0PS: Oxygen, SBE 43 [% saturation]
# name 5 = sigma-t00: Density [sigma-t, Kg/m^3 ]
# name 6 = par: PAR/Irradiance, Biospherical/Licor
# name 7 = prdM: Pressure, Strain Gauge [db]
# name 8 = flECO-AFL: Fluorescence, Wetlab ECO-AFL/FL [mg/m^3]
# name 9 = flag: flag
# span 0 =      1.000,     79.000       
# span 1 =     8.2796,    11.6258       
# span 2 =    27.1600,    31.7507       
# span 3 =    8.22450,   10.50845       
# span 4 =   87.86051,  100.72542       
# span 5 =    20.5895,    24.6816       
# span 6 = 1.5466e+00, 1.7303e+02       
# span 7 =      1.145,     79.706       
# span 8 =     0.6370,     1.3015       
# span 9 = 0.0000e+00, 0.0000e+00       
# interval = meters: 1                  
# start_time = Jul 27 2007 08:40:01
# bad_flag = -9.990e-29
# sensor 0 = Frequency 0  temperature, 5061, 05-Oct-06
# sensor 1 = Frequency 1  conductivity, 5061, 05-Oct-06, cpcor = -9.5700e-08
# sensor 2 = Pressure Number
# sensor 3 = Extrnl Volt  0  irradiance (PAR), primary, 4751, 08/10/06
# sensor 4 = Extrnl Volt  1  Oxygen, SBE, primary, 1081, 10/24/06
# sensor 5 = Extrnl Volt  2  WET Labs, ECO_AFL
# sensor 6 = Extrnl Volt  3  userpoly 0, 0627, 10/11/06
# datcnv_date = Oct 15 2007 14:49:53, 5.37e
# datcnv_in = I:\bob d\OTF_GEM\2007\ctd-07136.hex I:\Willette\OTF\CTD\5061.con
# datcnv_skipover = 0
# filter_date = Oct 15 2007 15:02:41, 5.37e
# filter_in = I:\Willette\OTF\CTD\2007\CTD Data\ctd-07136.cnv
# filter_low_pass_tc_A = 1.000
# filter_low_pass_tc_B = 0.150
# filter_low_pass_A_vars = prdM
# filter_low_pass_B_vars =
# loopedit_date = Oct 15 2007 15:06:59, 5.37e
# loopedit_in = I:\Willette\OTF\CTD\2007\CTD Data\ctd-07136.cnv
# loopedit_minVelocity = 0.250                                                                                            
# loopedit_surfaceSoak: minDepth = 5.0, maxDepth = 20, useDeckPress = 1                                                   
# loopedit_excl_bad_scans = yes
# alignctd_date = Oct 15 2007 15:14:24, 5.37e
# alignctd_in = I:\Willette\OTF\CTD\2007\CTD Data\ctd-07136.cnv
# alignctd_adv = tv290C 0.500, sbeox0Mg/L 4.000, sbeox0PS 4.000                                                                                                                                                                      
# binavg_date = Oct 15 2007 15:18:52, 5.37e
# binavg_in = I:\Willette\OTF\CTD\2007\CTD Data\ctd-07136.cnv
# binavg_bintype = meters
# binavg_binsize = 1
# binavg_excl_bad_scans = yes
# binavg_skipover = 0
# binavg_surface_bin = no, min = 0.000, max = 0.000, value = 0.000
# file_type = ascii
*END*
      5.000    10.9187    28.4556    8.26619   88.66129    21.6754 5.1308e+01      5.144     1.0811 0.0000e+00
      6.000    10.6417    28.9854    8.26794   88.57835    22.1421 4.1039e+01      6.166     1.0339 0.0000e+00
      7.000    10.2457    29.4753    8.22795   88.06550    22.5636 3.2884e+01      7.046     0.9931 0.0000e+00
      8.000     9.9571    30.0287    8.22450   87.86051    23.0648 2.7530e+01      7.918     0.8976 0.0000e+00
      9.000     9.7983    30.3433    8.36308   89.11420    23.3448 2.1340e+01      9.084     0.8222 0.0000e+00
     10.000     9.6223    30.5099    8.56116   91.02738    23.5004 1.6960e+01     10.223     0.7856 0.0000e+00
     11.000     9.5143    30.6398    8.59706   91.21217    23.6207 1.3711e+01     11.227     0.7738 0.0000e+00
     12.000     9.4337    30.7211    8.67673   91.81988    23.6975 1.1205e+01     12.217     0.7682 0.0000e+00
     13.000     9.3631    30.7930    8.73866   92.44984    23.7638 9.2802e+00     13.101     0.7481 0.0000e+00
     14.000     9.2837    30.8882    8.67586   91.62856    23.8505 7.6403e+00     14.257     0.7500 0.0000e+00
     15.000     9.1547    30.9383    8.68818   91.63459    23.9018 6.5268e+00     15.190     0.7661 0.0000e+00
     16.000     9.0652    31.0637    8.74536   92.11537    24.0190 5.5848e+00     15.997     0.7758 0.0000e+00
     17.000     9.0201    31.1722    8.78570   92.48492    24.1158 4.7409e+00     17.149     0.7797 0.0000e+00
     18.000     8.9148    31.2178    8.69362   91.46600    24.1630 4.1602e+00     18.247     0.7867 0.0000e+00
     19.000     8.8318    31.2842    8.63283   90.72036    24.2276 3.7063e+00     19.163     0.8034 0.0000e+00
     20.000     8.7527    31.3731    8.72227   91.59004    24.3110 3.3315e+00     20.058     0.8372 0.0000e+00
     21.000     8.7314    31.4581    8.80344   92.39744    24.3859 3.0033e+00     21.291     0.8719 0.0000e+00
     22.000     8.6806    31.4298    8.72873   91.50876    24.3667 2.7756e+00     22.384     0.8813 0.0000e+00
     23.000     8.6313    31.4492    8.73311   91.48561    24.3890 2.5867e+00     23.157     0.8871 0.0000e+00
     24.000     8.5920    31.5269    8.77975   91.92605    24.4580 2.4053e+00     24.023     0.8925 0.0000e+00
     25.000     8.5580    31.5861    8.76299   91.70503    24.5102 2.2483e+00     25.358     0.8722 0.0000e+00
     26.000     8.4987    31.5842    8.78262   91.91522    24.5152 2.1406e+00     26.263     0.8749 0.0000e+00
     27.000     8.4421    31.6445    8.77459   91.78698    24.5713 2.0429e+00     27.144     0.8816 0.0000e+00
     28.000     8.4161    31.6970    8.81932   92.20213    24.6193 1.9612e+00     28.216     0.9008 0.0000e+00
     29.000     8.4073    31.7128    8.80931   92.09121    24.6340 1.8992e+00     29.253     0.8768 0.0000e+00
     30.000     8.3791    31.7040    8.80126   91.99345    24.6287 1.8467e+00     30.345     0.9000 0.0000e+00
     31.000     8.3515    31.7411    8.85296   92.54775    24.6635 1.7994e+00     31.243     0.9238 0.0000e+00
     32.000     8.3526    31.7460    8.80147   92.01493    24.6683 1.7576e+00     32.402     0.9097 0.0000e+00
     33.000     8.3465    31.7343    8.75294   91.49678    24.6596 1.7263e+00     33.274     0.9270 0.0000e+00
     34.000     8.3481    31.7507    8.75337   91.47745    24.6729 1.6978e+00     34.235     0.9207 0.0000e+00
     35.000     8.3537    31.7445    8.83750   92.32445    24.6668 1.6742e+00     35.350     0.9249 0.0000e+00
     36.000     8.3464    31.7453    9.00744   94.07535    24.6684 1.6553e+00     36.362     0.9247 0.0000e+00
     37.000     8.3365    31.7162    9.10181   95.05411    24.6465 1.6391e+00     37.428     0.9093 0.0000e+00
     38.000     8.3276    31.7099    9.14446   95.50072    24.6429 1.6247e+00     38.355     0.9065 0.0000e+00
     39.000     8.3154    31.7211    9.17371   95.81211    24.6537 1.6121e+00     39.345     0.9197 0.0000e+00
     40.000     8.3126    31.7225    9.20061   96.09814    24.6552 1.6018e+00     40.384     0.9284 0.0000e+00
     41.000     8.3137    31.7255    9.21543   96.25028    24.6581 1.5932e+00     41.258     0.9379 0.0000e+00
     42.000     8.3191    31.7205    9.24269   96.53189    24.6534 1.5857e+00     42.447     0.8977 0.0000e+00
     43.000     8.3191    31.7178    9.25595   96.66700    24.6510 1.5801e+00     43.419     0.8914 0.0000e+00
     44.000     8.3181    31.7191    9.26436   96.75219    24.6521 1.5750e+00     44.444     0.8923 0.0000e+00
     45.000     8.3147    31.7208    9.27474   96.84968    24.6539 1.5711e+00     45.472     0.9190 0.0000e+00
     46.000     8.3152    31.7210    9.28035   96.90540    24.6541 1.5673e+00     46.417     0.9328 0.0000e+00
     47.000     8.3112    31.7223    9.28713   96.97316    24.6554 1.5647e+00     47.518     1.0453 0.0000e+00
     48.000     8.3066    31.7272    9.28951   96.99466    24.6601 1.5620e+00     48.459     1.0697 0.0000e+00
     49.000     8.3052    31.7285    9.29627   97.06172    24.6613 1.5597e+00     49.358     1.0780 0.0000e+00
     50.000     8.3032    31.7304    9.30516   97.15215    24.6631 1.5581e+00     50.568     1.0832 0.0000e+00
     51.000     8.3012    31.7317    9.30458   97.14150    24.6644 1.5571e+00     51.375     1.0913 0.0000e+00
     52.000     8.2983    31.7347    9.30475   97.13689    24.6673 1.5556e+00     52.563     1.0959 0.0000e+00
     53.000     8.2985    31.7336    9.30737   97.16046    24.6664 1.5543e+00     53.451     1.1268 0.0000e+00
     54.000     8.2931    31.7384    9.31488   97.23785    24.6708 1.5532e+00     54.509     1.0821 0.0000e+00
     55.000     8.2898    31.7390    9.32513   97.34253    24.6716 1.5524e+00     55.529     1.1121 0.0000e+00
     56.000     8.2895    31.7413    9.32123   97.30116    24.6738 1.5518e+00     56.541     1.0907 0.0000e+00
     57.000     8.2880    31.7424    9.32574   97.34623    24.6749 1.5511e+00     57.628     1.1267 0.0000e+00
     58.000     8.2876    31.7428    9.33109   97.40581    24.6752 1.5509e+00     58.509     1.1177 0.0000e+00
     59.000     8.2874    31.7426    9.32413   97.33167    24.6751 1.5506e+00     59.622     1.1285 0.0000e+00
     60.000     8.2867    31.7435    9.32672   97.35526    24.6760 1.5504e+00     60.566     1.1224 0.0000e+00
     61.000     8.2893    31.7423    9.32820   97.37183    24.6747 1.5498e+00     61.533     1.1125 0.0000e+00
     62.000     8.2864    31.7429    9.33057   97.39655    24.6753 1.5498e+00     62.629     1.1235 0.0000e+00
     63.000     8.2861    31.7440    9.33028   97.38968    24.6764 1.5495e+00     63.617     1.1394 0.0000e+00
     64.000     8.2866    31.7435    9.33813   97.46846    24.6759 1.5490e+00     64.601     1.1130 0.0000e+00
     65.000     8.2859    31.7437    9.33977   97.48811    24.6761 1.5494e+00     65.626     1.1325 0.0000e+00
     66.000     8.2829    31.7455    9.33703   97.46025    24.6779 1.5492e+00     66.618     1.1315 0.0000e+00
     67.000     8.2831    31.7469    9.33285   97.41708    24.6792 1.5489e+00     67.561     1.1133 0.0000e+00
     68.000     8.2839    31.7459    9.33824   97.47224    24.6782 1.5486e+00     68.619     1.1678 0.0000e+00
     69.000     8.2844    31.7456    9.33641   97.45622    24.6779 1.5487e+00     69.663     1.1163 0.0000e+00
     70.000     8.2846    31.7454    9.33454   97.43062    24.6778 1.5488e+00     70.653     1.1286 0.0000e+00
     71.000     8.2850    31.7445    9.33566   97.43809    24.6769 1.5485e+00     71.801     1.1415 0.0000e+00
     72.000     8.2814    31.7469    9.33945   97.47822    24.6792 1.5483e+00     72.678     1.1462 0.0000e+00
     73.000     8.2798    31.7489    9.34006   97.48549    24.6811 1.5483e+00     73.745     1.1457 0.0000e+00
     74.000     8.2798    31.7494    9.33381   97.42014    24.6816 1.5485e+00     74.683     1.1486 0.0000e+00
     75.000     8.2804    31.7488    9.33652   97.44902    24.6810 1.5483e+00     75.736     1.1444 0.0000e+00
     76.000     8.2803    31.7485    9.34268   97.51256    24.6808 1.5482e+00     76.715     1.1582 0.0000e+00
     77.000     8.2805    31.7489    9.34822   97.57208    24.6811 1.5481e+00     77.682     1.1678 0.0000e+00
     78.000     8.2808    31.7489    9.34897   97.57959    24.6811 1.5478e+00     78.716     1.1531 0.0000e+00
     79.000     8.2821    31.7483    9.33896   97.47678    24.6804 1.5481e+00     79.706     1.1893 0.0000e+00
     78.000     8.2822    31.7483    9.34133   97.50240    24.6804 1.5472e+00     78.645     1.2098 0.0000e+00
     77.000     8.2822    31.7480    9.34113   97.50002    24.6801 1.5466e+00     77.748     1.1960 0.0000e+00
     76.000     8.2821    31.7480    9.34283   97.51820    24.6801 1.5480e+00     76.705     1.2011 0.0000e+00
     75.000     8.2822    31.7477    9.33808   97.47020    24.6799 1.5478e+00     75.748     1.2261 0.0000e+00
     74.000     8.2823    31.7480    9.34548   97.54657    24.6801 1.5478e+00     74.717     1.1991 0.0000e+00
     73.000     8.2834    31.7472    9.34172   97.50993    24.6794 1.5479e+00     73.704     1.2014 0.0000e+00
     72.000     8.2830    31.7468    9.33286   97.42084    24.6790 1.5479e+00     72.712     1.2108 0.0000e+00
     71.000     8.2847    31.7468    9.33756   97.47134    24.6790 1.5480e+00     71.649     1.2043 0.0000e+00
     70.000     8.2866    31.7436    9.34196   97.52054    24.6760 1.5477e+00     70.717     1.2030 0.0000e+00
     69.000     8.2872    31.7439    9.33970   97.49278    24.6762 1.5478e+00     69.590     1.2300 0.0000e+00
     68.000     8.2890    31.7422    9.34262   97.51449    24.6746 1.5479e+00     68.741     1.2487 0.0000e+00
     67.000     8.2861    31.7428    9.34115   97.49540    24.6752 1.5477e+00     67.435     1.2363 0.0000e+00
     66.000     8.2814    31.7461    9.34107   97.49511    24.6785 1.5481e+00     66.695     1.2252 0.0000e+00
     65.000     8.2803    31.7482    9.34189   97.50411    24.6805 1.5477e+00     65.635     1.2034 0.0000e+00
     64.000     8.2798    31.7491    9.34279   97.51345    24.6813 1.5487e+00     64.590     1.2382 0.0000e+00
     63.000     8.2804    31.7479    9.34297   97.51376    24.6803 1.5483e+00     63.622     1.2561 0.0000e+00
     62.000     8.2803    31.7481    9.34111   97.49537    24.6804 1.5485e+00     62.624     1.2971 0.0000e+00
     61.000     8.2796    31.7484    9.32998   97.37869    24.6808 1.5482e+00     61.576     1.2918 0.0000e+00
     60.000     8.2801    31.7486    9.33927   97.47606    24.6809 1.5490e+00     60.597     1.2888 0.0000e+00
     59.000     8.2799    31.7479    9.34899   97.57763    24.6804 1.5491e+00     59.541     1.3015 0.0000e+00
     58.000     8.2802    31.7480    9.34246   97.52003    24.6804 1.5493e+00     58.612     1.2814 0.0000e+00
     57.000     8.2806    31.7476    9.33688   97.47365    24.6801 1.5498e+00     57.545     1.2823 0.0000e+00
     56.000     8.2890    31.7430    9.35047   97.61642    24.6756 1.5505e+00     56.537     1.2819 0.0000e+00
     55.000     8.2935    31.7377    9.35599   97.67280    24.6705 1.5511e+00     55.545     1.2725 0.0000e+00
     54.000     8.2936    31.7371    9.35093   97.61746    24.6698 1.5517e+00     54.539     1.2754 0.0000e+00
     53.000     8.2924    31.7376    9.35606   97.67020    24.6704 1.5526e+00     53.484     1.2877 0.0000e+00
     52.000     8.2905    31.7389    9.35931   97.71115    24.6717 1.5536e+00     52.514     1.2643 0.0000e+00
     51.000     8.2931    31.7379    9.36215   97.74685    24.6707 1.5550e+00     51.459     1.2686 0.0000e+00
     50.000     8.2975    31.7338    9.36535   97.78517    24.6668 1.5567e+00     50.507     1.2445 0.0000e+00
     49.000     8.2997    31.7323    9.36970   97.83310    24.6654 1.5584e+00     49.458     1.2406 0.0000e+00
     48.000     8.3037    31.7283    9.36582   97.78832    24.6616 1.5609e+00     48.426     1.1483 0.0000e+00
     47.000     8.3023    31.7287    9.36525   97.78316    24.6620 1.5629e+00     47.482     1.1642 0.0000e+00
     46.000     8.3007    31.7302    9.36341   97.76922    24.6635 1.5664e+00     46.422     1.1446 0.0000e+00
     45.000     8.3027    31.7292    9.36556   97.79544    24.6625 1.5703e+00     45.421     1.1456 0.0000e+00
     44.000     8.3057    31.7265    9.36904   97.83183    24.6599 1.5749e+00     44.452     1.1634 0.0000e+00
     43.000     8.3068    31.7250    9.36759   97.81825    24.6585 1.5799e+00     43.400     1.1380 0.0000e+00
     42.000     8.3068    31.7252    9.37494   97.89584    24.6587 1.5858e+00     42.409     1.0707 0.0000e+00
     41.000     8.3084    31.7233    9.37139   97.85458    24.6569 1.5934e+00     41.374     1.0584 0.0000e+00
     40.000     8.3071    31.7241    9.37083   97.84753    24.6577 1.6018e+00     40.393     1.0008 0.0000e+00
     39.000     8.3055    31.7257    9.37386   97.89237    24.6593 1.6120e+00     39.372     0.9791 0.0000e+00
     38.000     8.3075    31.7256    9.37604   97.93007    24.6591 1.6251e+00     38.401     0.9673 0.0000e+00
     37.000     8.3227    31.7120    9.37806   97.95341    24.6462 1.6395e+00     37.336     0.9257 0.0000e+00
     36.000     8.3226    31.7109    9.37883   97.96760    24.6452 1.6565e+00     36.319     0.9185 0.0000e+00
     35.000     8.3262    31.7080    9.37155   97.90255    24.6424 1.6777e+00     35.327     0.9011 0.0000e+00
     34.000     8.3305    31.7055    9.37995   98.01054    24.6400 1.7017e+00     34.330     0.9211 0.0000e+00
     33.000     8.3454    31.6912    9.37953   97.99167    24.6264 1.7305e+00     33.315     0.9031 0.0000e+00
     32.000     8.3373    31.6972    9.38577   98.07772    24.6321 1.7674e+00     32.325     0.8999 0.0000e+00
     31.000     8.3513    31.6886    9.38488   98.11509    24.6240 1.8100e+00     31.302     0.8606 0.0000e+00
     30.000     8.3838    31.6587    9.38778   98.19184    24.5957 1.8579e+00     30.260     0.8574 0.0000e+00
     29.000     8.4052    31.6365    9.39336   98.25430    24.5746 1.9165e+00     29.210     0.8227 0.0000e+00
     28.000     8.4064    31.6370    9.39095   98.23981    24.5750 1.9837e+00     28.251     0.7839 0.0000e+00
     27.000     8.4127    31.6319    9.39161   98.25760    24.5702 2.0686e+00     27.277     0.8131 0.0000e+00
     26.000     8.4186    31.6261    9.39457   98.32005    24.5647 2.1704e+00     26.239     0.7995 0.0000e+00
     25.000     8.4303    31.6180    9.39008   98.33515    24.5571 2.2921e+00     25.229     0.7869 0.0000e+00
     24.000     8.4571    31.5963    9.38989   98.43823    24.5366 2.4341e+00     24.239     0.7869 0.0000e+00
     23.000     8.5121    31.5521    9.39133   98.54400    24.4949 2.6139e+00     23.209     0.7813 0.0000e+00
     22.000     8.5704    31.4962    9.38954   98.64121    24.4420 2.8427e+00     22.185     0.7826 0.0000e+00
     21.000     8.6289    31.4466    9.38866   98.73799    24.3949 3.1002e+00     21.195     0.7739 0.0000e+00
     20.000     8.6954    31.3888    9.38771   98.82697    24.3399 3.4329e+00     20.223     0.7423 0.0000e+00
     19.000     8.7544    31.3351    9.38583   99.05337    24.2885 3.8475e+00     19.121     0.7149 0.0000e+00
     18.000     8.8504    31.2621    9.37667   99.07856    24.2192 4.3307e+00     18.199     0.7176 0.0000e+00
     17.000     8.9630    31.1492    9.37704   99.26755    24.1116 4.9393e+00     17.067     0.6803 0.0000e+00
     16.000     9.0650    31.0639    9.36960   99.29213    24.0308 5.7072e+00     16.140     0.6684 0.0000e+00
     15.000     9.1312    30.9993    9.35883   99.24806    23.9695 6.6266e+00     15.193     0.6551 0.0000e+00
     14.000     9.2201    30.9124    9.36021   99.47393    23.8871 7.7850e+00     14.054     0.6421 0.0000e+00
     13.000     9.2580    30.8834    9.35789   99.51909    23.8601 9.3097e+00     13.194     0.6370 0.0000e+00
     12.000     9.3720    30.7723    9.35177   99.60308    23.7561 1.1043e+01     12.036     0.6486 0.0000e+00
     11.000     9.4062    30.7323    9.34440   99.72927    23.7180 1.3550e+01     11.131     0.6811 0.0000e+00
     10.000     9.4912    30.6520    9.33718   99.87729    23.6442 1.6622e+01     10.035     0.7086 0.0000e+00
      9.000     9.6167    30.5337    9.32295   99.96251    23.5361 2.0744e+01      9.092     0.7300 0.0000e+00
      8.000     9.7554    30.3575    9.31431  100.20413    23.3742 2.5310e+01      8.059     0.7393 0.0000e+00
      7.000     9.9005    30.2001    9.30382  100.38641    23.2324 3.2244e+01      7.076     0.7407 0.0000e+00
      6.000    10.1579    29.8718    9.29297  100.72542    22.9393 4.0815e+01      6.037     0.7824 0.0000e+00
      5.000    10.4247    29.4499    9.25848  100.58934    22.5683 5.1054e+01      4.965     0.8549 0.0000e+00
      4.000    10.7226    28.9447    9.22328  100.41305    22.1347 6.5352e+01      4.137     0.9166 0.0000e+00
      3.000    11.1165    28.1798    9.60535  100.09871    21.4645 7.9716e+01      2.935     1.0174 0.0000e+00
      2.000    11.3023    27.7898   10.50845   99.02072    21.1334 9.7540e+01      2.065     1.0440 0.0000e+00
      1.000    11.6258    27.1600    9.53833   97.54152    20.5895 1.7303e+02      1.145     0.9962 0.0000e+00
