* Sea-Bird SBE19plus Data File:
* FileName = C:\data\otf\2007\ctd-07018.hex
* Software Version 1.55
* Temperature SN =  5061
* Conductivity SN =  5061
* System UpLoad Time = Aug 15 2007 15:57:46
* ds
* SeacatPlus V 1.6a  SERIAL NO. 5061    15 Aug 2007  15:31:53
* vbatt = 10.9, vlith =  8.7, ioper =  61.6 ma, ipump =  57.5 ma, 
* iext01 =  95.2 ma
* iext23 =  58.1 ma
* 
* status = not logging
* number of scans to average = 1
* samples = 153039, free = 288466, casts = 154
* mode = profile, minimum cond freq = 3000, pump delay = 60 sec
* autorun = no, ignore magnetic switch = no
* battery type = alkaline, battery cutoff =  7.3 volts
* pressure sensor = strain gauge, range = 870.0
* SBE 38 = no, Gas Tension Device = no
* Ext Volt 0 = yes, Ext Volt 1 = yes, Ext Volt 2 = yes, Ext Volt 3 = yes
* echo commands = yes
* output format = raw HEX
* S>
* 
* SeacatPlus V 1.6a  SERIAL NO. 5061    15 Aug 2007  15:32:18
* temperature:  05-oct-06
*     TA0 = 1.254184e-03
*     TA1 = 2.596730e-04
*     TA2 = 5.165612e-07
*     TA3 = 1.318931e-07
*     TOFFSET = 0.000000e+00
* conductivity:  05-oct-06
*     G = -9.978144e-01
*     H = 1.555200e-01
*     I = -4.839108e-04
*     J = 6.121100e-05
*     CF0 = 2.539936e+03
*     CPCOR = -9.570000e-08
*     CTCOR = 3.250000e-06
*     CSLOPE = 1.000000e+00
* pressure S/N = 2362539, range = 870 psia:  24-aug-06
*     PA0 = 2.171091e-01
*     PA1 = 2.647085e-03
*     PA2 = 1.419397e-11
*     PTCA0 = 5.242437e+05
*     PTCA1 = 7.545345e+00
*     PTCA2 = -1.835354e-01
*     PTCB0 = 2.537125e+01
*     PTCB1 = -1.750000e-03
*     PTCB2 = 0.000000e+00
*     PTEMPA0 = -5.753989e+01
*     PTEMPA1 = 5.235813e+01
*     PTEMPA2 = -4.015521e-02
*     POFFSET = 0.000000e+00
* volt 0: offset = -4.682842e-02, slope = 1.249147e+00
* volt 1: offset = -4.695158e-02, slope = 1.248145e+00
* volt 2: offset = -4.685263e-02, slope = 1.248783e+00
* volt 3: offset = -4.690316e-02, slope = 1.249508e+00
*     EXTFREQSF = 1.000002e+00
* dh
* cast  18 05 Jul 2007 11:33:33 samples 30470 to 30832, avg = 4, stop = mag switch
* S> 
# nquan = 10
# nvalues = 168                         
# units = specified
# name 0 = depSM: Depth [salt water, m]
# name 1 = tv290C: Temperature [ITS-90, deg C]
# name 2 = sal00: Salinity [PSU]
# name 3 = sbeox0Mg/L: Oxygen, SBE 43 [mg/l]
# name 4 = sbeox0PS: Oxygen, SBE 43 [% saturation]
# name 5 = sigma-t00: Density [sigma-t, Kg/m^3 ]
# name 6 = par: PAR/Irradiance, Biospherical/Licor
# name 7 = prdM: Pressure, Strain Gauge [db]
# name 8 = flECO-AFL: Fluorescence, Wetlab ECO-AFL/FL [mg/m^3]
# name 9 = flag: flag
# span 0 =      1.000,     86.000       
# span 1 =     7.7011,     8.7382       
# span 2 =    30.7066,    31.6464       
# span 3 =    9.19948,   11.93624       
# span 4 =   95.79002,  109.09494       
# span 5 =    23.8048,    24.6829       
# span 6 = 1.5474e+00, 7.6669e+02       
# span 7 =      1.686,     85.819       
# span 8 =     0.5520,     1.4474       
# span 9 = 0.0000e+00, 0.0000e+00       
# interval = meters: 1                  
# start_time = Jul 05 2007 11:33:33
# bad_flag = -9.990e-29
# sensor 0 = Frequency 0  temperature, 5061, 05-Oct-06
# sensor 1 = Frequency 1  conductivity, 5061, 05-Oct-06, cpcor = -9.5700e-08
# sensor 2 = Pressure Number
# sensor 3 = Extrnl Volt  0  irradiance (PAR), primary, 4751, 08/10/06
# sensor 4 = Extrnl Volt  1  Oxygen, SBE, primary, 1081, 10/24/06
# sensor 5 = Extrnl Volt  2  WET Labs, ECO_AFL
# sensor 6 = Extrnl Volt  3  userpoly 0, 0627, 10/11/06
# datcnv_date = Oct 15 2007 14:49:43, 5.37e
# datcnv_in = I:\bob d\OTF_GEM\2007\ctd-07018.hex I:\Willette\OTF\CTD\5061.con
# datcnv_skipover = 0
# filter_date = Oct 15 2007 15:02:22, 5.37e
# filter_in = I:\Willette\OTF\CTD\2007\CTD Data\ctd-07018.cnv
# filter_low_pass_tc_A = 1.000
# filter_low_pass_tc_B = 0.150
# filter_low_pass_A_vars = prdM
# filter_low_pass_B_vars =
# loopedit_date = Oct 15 2007 15:06:44, 5.37e
# loopedit_in = I:\Willette\OTF\CTD\2007\CTD Data\ctd-07018.cnv
# loopedit_minVelocity = 0.250                                                                                            
# loopedit_surfaceSoak: minDepth = 5.0, maxDepth = 20, useDeckPress = 1                                                   
# loopedit_excl_bad_scans = yes
# alignctd_date = Oct 15 2007 15:14:13, 5.37e
# alignctd_in = I:\Willette\OTF\CTD\2007\CTD Data\ctd-07018.cnv
# alignctd_adv = tv290C 0.500, sbeox0Mg/L 4.000, sbeox0PS 4.000                                                                                                                                                                      
# binavg_date = Oct 15 2007 15:18:42, 5.37e
# binavg_in = I:\Willette\OTF\CTD\2007\CTD Data\ctd-07018.cnv
# binavg_bintype = meters
# binavg_binsize = 1
# binavg_excl_bad_scans = yes
# binavg_skipover = 0
# binavg_surface_bin = no, min = 0.000, max = 0.000, value = 0.000
# file_type = ascii
*END*
      4.000     8.5496    30.7400    9.19948   95.79002    23.8314 1.5157e+02      4.681     0.7012 0.0000e+00
      5.000     8.5220    30.8395    9.22378   96.06217    23.9263 1.1786e+02      5.330     0.7840 0.0000e+00
      6.000     8.5041    30.8650    9.26768   96.51538    23.9506 9.1130e+01      6.039     0.7763 0.0000e+00
      7.000     8.5014    30.8958    9.36903   97.56508    23.9787 6.9724e+01      6.735     0.7492 0.0000e+00
      8.000     8.4825    30.9436    9.41690   97.93532    24.0169 5.3782e+01      7.894     0.7699 0.0000e+00
      9.000     8.4156    30.9699    9.69255  100.72637    24.0434 4.2069e+01      9.077     0.7302 0.0000e+00
     10.000     8.3732    31.0230    9.83164  102.07460    24.0932 3.3089e+01     10.217     0.6818 0.0000e+00
     11.000     8.3626    31.0545    9.88000  102.48741    24.1228 2.6431e+01     11.195     0.6743 0.0000e+00
     12.000     8.3721    31.0779    9.91195  102.72631    24.1432 2.1234e+01     12.264     0.6669 0.0000e+00
     13.000     8.3693    31.0765    9.93690  102.92442    24.1409 1.7092e+01     13.357     0.6951 0.0000e+00
     14.000     8.3747    31.0628    9.95349  103.04469    24.1304 1.4004e+01     14.257     0.6895 0.0000e+00
     15.000     8.3155    31.0722    9.97006  103.16604    24.1373 1.1223e+01     15.468     0.6713 0.0000e+00
     16.000     8.2777    31.0771    9.98629  103.31036    24.1458 9.3475e+00     16.409     0.6868 0.0000e+00
     17.000     8.2568    31.1210    9.98792  103.29556    24.1884 7.6693e+00     17.454     0.6355 0.0000e+00
     18.000     8.2017    31.1394   10.00924  103.49846    24.2058 6.4871e+00     18.685     0.6615 0.0000e+00
     19.000     8.1933    31.1589   10.00767  103.46304    24.2253 5.5487e+00     19.402     0.6589 0.0000e+00
     20.000     8.1366    31.1818   10.00862  103.43472    24.2475 4.7716e+00     20.550     0.7641 0.0000e+00
     21.000     8.1182    31.1950   10.02653  103.58946    24.2609 4.1730e+00     21.250     0.7371 0.0000e+00
     22.000     8.0923    31.2313   10.02173  103.45803    24.2966 3.6483e+00     22.364     0.6798 0.0000e+00
     23.000     8.0731    31.2517   10.01642  103.37512    24.3162 3.2792e+00     23.283     0.6577 0.0000e+00
     24.000     8.0505    31.2705   10.02407  103.44169    24.3339 2.9576e+00     24.213     0.6824 0.0000e+00
     25.000     8.0283    31.2916   10.01690  103.35791    24.3534 2.6993e+00     25.216     0.7085 0.0000e+00
     26.000     8.0147    31.3218   10.03140  103.48854    24.3818 2.4825e+00     26.434     0.7819 0.0000e+00
     27.000     8.0021    31.3306   10.04226  103.57908    24.3901 2.3307e+00     27.260     0.7351 0.0000e+00
     28.000     7.9910    31.3408   10.02730  103.40050    24.3998 2.2048e+00     28.314     0.7193 0.0000e+00
     29.000     7.9843    31.3521   10.05089  103.62454    24.4105 2.0918e+00     29.131     0.7232 0.0000e+00
     30.000     7.9680    31.3631   10.05265  103.58688    24.4210 1.9885e+00     30.813     0.7593 0.0000e+00
     31.000     7.9556    31.3671   10.01288  103.18595    24.4249 1.9255e+00     31.308     0.7638 0.0000e+00
     32.000     7.9359    31.3780   10.03666  103.39154    24.4353 1.8617e+00     32.282     0.7351 0.0000e+00
     33.000     7.8860    31.3954    9.98501  102.84603    24.4518 1.8086e+00     33.453     0.7329 0.0000e+00
     34.000     7.8756    31.4044   10.01190  103.11783    24.4611 1.7681e+00     34.156     0.7436 0.0000e+00
     35.000     7.8695    31.4368   10.01261  103.13363    24.4927 1.7304e+00     35.277     0.7511 0.0000e+00
     36.000     7.8649    31.4458   10.02224  103.23137    24.5016 1.7022e+00     36.273     0.7704 0.0000e+00
     37.000     7.8589    31.4487   10.03485  103.34740    24.5046 1.6782e+00     37.179     0.7694 0.0000e+00
     38.000     7.8478    31.4508   10.01080  103.07862    24.5069 1.6567e+00     38.190     0.7584 0.0000e+00
     39.000     7.8344    31.4552   10.02532  103.20956    24.5119 1.6406e+00     39.271     0.7827 0.0000e+00
     40.000     7.8227    31.4615   10.01695  103.11721    24.5182 1.6261e+00     40.122     0.7132 0.0000e+00
     41.000     7.7915    31.4718   10.02462  103.19278    24.5288 1.6131e+00     41.446     0.7123 0.0000e+00
     42.000     7.7849    31.4854   10.02964  103.24897    24.5410 1.6050e+00     42.212     0.7613 0.0000e+00
     43.000     7.7719    31.5159   10.05249  103.47704    24.5681 1.5955e+00     43.041     0.7891 0.0000e+00
     44.000     7.7432    31.5374   10.02191  103.16062    24.5859 1.5883e+00     44.715     0.9705 0.0000e+00
     45.000     7.7576    31.5612   10.04119  103.35792    24.6086 1.5826e+00     45.296     0.9104 0.0000e+00
     46.000     7.7573    31.5553   10.03208  103.26503    24.6036 1.5777e+00     46.240     0.9675 0.0000e+00
     47.000     7.7366    31.5573   10.03905  103.33779    24.6053 1.5728e+00     47.774     0.9009 0.0000e+00
     48.000     7.7222    31.5736   10.02868  103.23011    24.6198 1.5694e+00     48.560     0.9139 0.0000e+00
     49.000     7.7130    31.6080   10.03674  103.31247    24.6498 1.5666e+00     49.832     0.9923 0.0000e+00
     50.000     7.7130    31.6194   10.03560  103.29860    24.6597 1.5639e+00     50.595     0.9933 0.0000e+00
     51.000     7.7109    31.6248   10.03009  103.24235    24.6646 1.5616e+00     51.701     1.0150 0.0000e+00
     52.000     7.7083    31.6288   10.04812  103.42805    24.6678 1.5600e+00     52.681     1.0338 0.0000e+00
     53.000     7.7072    31.6349   10.02345  103.17444    24.6731 1.5583e+00     53.639     1.0804 0.0000e+00
     54.000     7.7057    31.6374   10.03726  103.31700    24.6752 1.5537e+00     54.430     1.0945 0.0000e+00
     55.000     7.7064    31.6387   10.07110  103.66470    24.6763 1.5528e+00     55.345     1.1126 0.0000e+00
     56.000     7.7062    31.6412   10.00906  103.02402    24.6786 1.5534e+00     56.240     1.1539 0.0000e+00
     57.000     7.7076    31.6391   10.04953  103.44021    24.6767 1.5528e+00     57.081     1.1671 0.0000e+00
     58.000     7.7071    31.6369   10.04373  103.38054    24.6749 1.5526e+00     58.204     1.1545 0.0000e+00
     59.000     7.7066    31.6376   10.04495  103.39308    24.6753 1.5523e+00     59.140     1.1040 0.0000e+00
     60.000     7.7049    31.6392   10.03870  103.32857    24.6767 1.5523e+00     60.319     1.0842 0.0000e+00
     61.000     7.7048    31.6418   10.04394  103.38256    24.6791 1.5517e+00     61.344     1.1998 0.0000e+00
     62.000     7.7046    31.6423   10.04897  103.43507    24.6795 1.5519e+00     62.743     1.1959 0.0000e+00
     63.000     7.7048    31.6430   10.04912  103.43643    24.6800 1.5514e+00     63.490     1.1763 0.0000e+00
     64.000     7.7011    31.6418   10.06909  103.64133    24.6790 1.5515e+00     65.791     1.3987 0.0000e+00
     65.000     7.7029    31.6445   10.05225  103.46920    24.6813 1.5544e+00     65.587     1.1294 0.0000e+00
     66.000     7.7028    31.6455   10.05848  103.53359    24.6822 1.5523e+00     66.581     1.2670 0.0000e+00
     67.000     7.7028    31.6459   10.05816  103.53044    24.6826 1.5506e+00     67.733     1.1920 0.0000e+00
     68.000     7.7027    31.6459   10.05517  103.50010    24.6826 1.5505e+00     68.845     1.2759 0.0000e+00
     69.000     7.7030    31.6460   10.06389  103.59005    24.6826 1.5495e+00     70.000     1.2919 0.0000e+00
     70.000     7.7031    31.6456   10.05708  103.51982    24.6824 1.5474e+00     70.924     1.1755 0.0000e+00
     71.000     7.7028    31.6456   10.05851  103.53426    24.6823 1.5482e+00     71.891     1.1612 0.0000e+00
     72.000     7.7028    31.6461   10.05502  103.49864    24.6827 1.5486e+00     72.902     1.1904 0.0000e+00
     73.000     7.7033    31.6461   10.04965  103.44378    24.6827 1.5489e+00     73.928     1.1866 0.0000e+00
     74.000     7.7034    31.6464   10.09706  103.93182    24.6829 1.5494e+00     74.773     1.1474 0.0000e+00
     75.000     7.7034    31.6457   10.04915  103.43864    24.6823 1.5493e+00     75.881     1.2366 0.0000e+00
     76.000     7.7034    31.6458   10.03676  103.31062    24.6824 1.5490e+00     76.771     1.1451 0.0000e+00
     77.000     7.7035    31.6459   10.04133  103.35723    24.6825 1.5497e+00     77.902     1.1364 0.0000e+00
     78.000     7.7038    31.6458   10.04588  103.40539    24.6824 1.5497e+00     78.726     1.1889 0.0000e+00
     79.000     7.7035    31.6456   10.05495  103.49860    24.6822 1.5496e+00     79.675     1.1965 0.0000e+00
     80.000     7.7035    31.6457   10.05567  103.50639    24.6822 1.5498e+00     80.576     1.2060 0.0000e+00
     81.000     7.7035    31.6461   10.05289  103.47961    24.6827 1.5538e+00     81.357     1.1317 0.0000e+00
     82.000     7.7035    31.6463   10.05350  103.48451    24.6827 1.5521e+00     82.248     1.1420 0.0000e+00
     83.000     7.7036    31.6462   10.04806  103.42960    24.6827 1.5509e+00     83.021     1.1837 0.0000e+00
     84.000     7.7038    31.6461   10.05667  103.51743    24.6826 1.5501e+00     83.766     1.2093 0.0000e+00
     85.000     7.7039    31.6460   10.05744  103.52518    24.6825 1.5494e+00     84.576     1.3160 0.0000e+00
     86.000     7.7035    31.6458   10.04792  103.42631    24.6823 1.5539e+00     85.819     1.1733 0.0000e+00
     85.000     7.7043    31.6460   10.03704  103.31366    24.6824 1.5492e+00     85.227     1.2849 0.0000e+00
     84.000     7.7040    31.6456   10.03719  103.31529    24.6821 1.5493e+00     84.123     1.2507 0.0000e+00
     83.000     7.7041    31.6457   10.04356  103.38200    24.6823 1.5488e+00     83.210     1.2052 0.0000e+00
     82.000     7.7038    31.6457   10.03714  103.31666    24.6822 1.5484e+00     82.540     1.1740 0.0000e+00
     81.000     7.7036    31.6460   10.02487  103.18979    24.6825 1.5485e+00     81.499     1.4474 0.0000e+00
     80.000     7.7036    31.6459   10.01668  103.10501    24.6824 1.5490e+00     80.693     1.2816 0.0000e+00
     79.000     7.7036    31.6459   10.03295  103.27065    24.6824 1.5491e+00     79.727     1.3075 0.0000e+00
     78.000     7.7036    31.6460   10.03460  103.28746    24.6825 1.5492e+00     78.728     1.2604 0.0000e+00
     77.000     7.7035    31.6458   10.04855  103.43130    24.6824 1.5490e+00     77.818     1.2853 0.0000e+00
     76.000     7.7042    31.6457   10.04399  103.38542    24.6823 1.5490e+00     76.698     1.2722 0.0000e+00
     75.000     7.7049    31.6447   10.04100  103.35390    24.6815 1.5490e+00     75.758     1.3615 0.0000e+00
     74.000     7.7052    31.6436   10.02355  103.17389    24.6805 1.5489e+00     74.760     1.3097 0.0000e+00
     73.000     7.7050    31.6433   10.03665  103.30869    24.6802 1.5488e+00     73.684     1.2709 0.0000e+00
     72.000     7.7038    31.6434   10.04504  103.39481    24.6803 1.5490e+00     72.665     1.1744 0.0000e+00
     71.000     7.7031    31.6447   10.03635  103.30662    24.6815 1.5502e+00     71.765     1.2599 0.0000e+00
     70.000     7.7034    31.6458   10.05143  103.46165    24.6824 1.5519e+00     70.708     1.3091 0.0000e+00
     69.000     7.7041    31.6452   10.04985  103.44640    24.6819 1.5501e+00     69.775     1.2950 0.0000e+00
     68.000     7.7041    31.6438   10.05011  103.45055    24.6807 1.5497e+00     68.627     1.2335 0.0000e+00
     67.000     7.7037    31.6441   10.03969  103.34250    24.6810 1.5495e+00     67.735     1.1680 0.0000e+00
     66.000     7.7036    31.6446   10.02445  103.18345    24.6815 1.5494e+00     66.606     1.2927 0.0000e+00
     65.000     7.7035    31.6447   10.04219  103.36508    24.6816 1.5499e+00     65.821     1.2022 0.0000e+00
     64.000     7.7041    31.6449   10.04074  103.35034    24.6817 1.5499e+00     64.897     1.3100 0.0000e+00
     63.000     7.7046    31.6428   10.04969  103.44269    24.6800 1.5500e+00     63.626     1.1961 0.0000e+00
     62.000     7.7061    31.6419   10.04315  103.37556    24.6791 1.5504e+00     62.722     1.2205 0.0000e+00
     61.000     7.7068    31.6375   10.05517  103.50217    24.6754 1.5506e+00     61.515     1.4296 0.0000e+00
     60.000     7.7046    31.6395   10.06172  103.57248    24.6771 1.5509e+00     60.453     1.1802 0.0000e+00
     59.000     7.7035    31.6424   10.05572  103.51172    24.6795 1.5515e+00     59.533     1.1028 0.0000e+00
     58.000     7.7036    31.6443   10.04849  103.43852    24.6812 1.5521e+00     58.348     1.2868 0.0000e+00
     57.000     7.7038    31.6441   10.05769  103.53812    24.6811 1.5530e+00     57.453     1.1431 0.0000e+00
     56.000     7.7044    31.6441   10.04152  103.37687    24.6810 1.5542e+00     56.303     1.0705 0.0000e+00
     55.000     7.7059    31.6418   10.05818  103.55627    24.6792 1.5547e+00     55.530     1.1768 0.0000e+00
     54.000     7.7097    31.6383   10.05741  103.56027    24.6762 1.5561e+00     54.564     1.2314 0.0000e+00
     53.000     7.7112    31.6296   10.05248  103.52323    24.6689 1.5577e+00     53.660     1.0948 0.0000e+00
     52.000     7.7119    31.6270   10.06556  103.67546    24.6665 1.5594e+00     52.679     1.0839 0.0000e+00
     51.000     7.7129    31.6248   10.05898  103.61561    24.6647 1.5619e+00     51.711     1.0913 0.0000e+00
     50.000     7.7168    31.6221   10.06995  103.75430    24.6625 1.5641e+00     50.620     1.1150 0.0000e+00
     49.000     7.7224    31.6131   10.07200  103.78576    24.6547 1.5672e+00     49.662     1.1727 0.0000e+00
     48.000     7.7338    31.6014   10.07097  103.77780    24.6445 1.5708e+00     48.554     1.0672 0.0000e+00
     47.000     7.7513    31.5813   10.08046  103.90719    24.6268 1.5756e+00     47.481     0.9706 0.0000e+00
     46.000     7.7611    31.5594   10.09060  104.04246    24.6075 1.5806e+00     46.464     0.9771 0.0000e+00
     45.000     7.7805    31.5381   10.09514  104.12349    24.5886 1.5864e+00     45.267     0.9513 0.0000e+00
     44.000     7.7855    31.5210   10.10481  104.25649    24.5733 1.5939e+00     44.258     0.8720 0.0000e+00
     43.000     7.7899    31.5165   10.10667  104.29295    24.5694 1.6025e+00     43.176     0.9239 0.0000e+00
     42.000     7.8036    31.5113   10.11365  104.39311    24.5647 1.6124e+00     42.211     0.8593 0.0000e+00
     41.000     7.8259    31.4928   10.11599  104.50350    24.5483 1.6249e+00     41.266     0.8374 0.0000e+00
     40.000     7.8300    31.4632   10.12595  104.66008    24.5215 1.6398e+00     40.114     0.8038 0.0000e+00
     39.000     7.8394    31.4651   10.13892  104.81606    24.5228 1.6571e+00     39.245     0.7522 0.0000e+00
     38.000     7.8540    31.4614   10.13147  104.75870    24.5191 1.6775e+00     38.350     0.7434 0.0000e+00
     37.000     7.8638    31.4551   10.11997  104.65424    24.5117 1.7036e+00     37.206     0.7289 0.0000e+00
     36.000     7.8678    31.4498   10.12717  104.73529    24.5064 1.7323e+00     36.322     0.6939 0.0000e+00
     35.000     7.8789    31.4469   10.12622  104.72808    24.5033 1.7678e+00     35.228     0.7505 0.0000e+00
     34.000     7.9063    31.4449   10.12388  104.70999    24.5011 1.8127e+00     34.359     0.7368 0.0000e+00
     33.000     7.9361    31.4277   10.12491  104.73569    24.4838 1.8698e+00     33.402     0.7265 0.0000e+00
     32.000     7.9548    31.4009   10.12564  104.75922    24.4580 1.9346e+00     32.489     0.7437 0.0000e+00
     31.000     7.9678    31.3882   10.12830  104.79778    24.4458 2.0105e+00     31.711     0.7742 0.0000e+00
     30.000     7.9815    31.3699   10.13846  104.91852    24.4285 2.1004e+00     30.595     0.7423 0.0000e+00
     29.000     7.9884    31.3606   10.12918  104.84502    24.4195 2.2281e+00     29.573     0.6837 0.0000e+00
     28.000     7.9925    31.3547   10.12561  104.84156    24.4137 2.3632e+00     28.391     0.7243 0.0000e+00
     27.000     8.0042    31.3512   10.12916  104.92360    24.4103 2.5367e+00     27.110     0.7502 0.0000e+00
     26.000     8.0158    31.3404   10.12255  104.92500    24.4002 2.7463e+00     26.199     0.7496 0.0000e+00
     25.000     8.0276    31.3281   10.13267  105.13749    24.3886 2.9776e+00     25.031     0.7571 0.0000e+00
     24.000     8.0406    31.3201   10.12356  105.09131    24.3811 3.2903e+00     24.004     0.7559 0.0000e+00
     23.000     8.0537    31.3071   10.12278  105.15117    24.3689 3.6675e+00     23.039     0.7504 0.0000e+00
     22.000     8.0661    31.2971   10.12388  105.23171    24.3595 4.1423e+00     22.109     0.7249 0.0000e+00
     21.000     8.0893    31.2803   10.13930  105.49455    24.3438 4.7115e+00     20.736     0.6796 0.0000e+00
     20.000     8.1060    31.2677   10.14156  105.51678    24.3323 5.4284e+00     20.105     0.6907 0.0000e+00
     19.000     8.1491    31.2504   10.15488  105.65786    24.3154 6.4179e+00     19.092     0.6952 0.0000e+00
     18.000     8.1820    31.2147   10.17179  105.84372    24.2805 7.5803e+00     17.985     0.7622 0.0000e+00
     17.000     8.1963    31.1999   10.17727  105.91481    24.2660 9.0761e+00     17.168     0.7583 0.0000e+00
     16.000     8.2239    31.1836   10.19370  106.09804    24.2504 1.1002e+01     16.138     0.6746 0.0000e+00
     15.000     8.2592    31.1647   10.19600  106.15579    24.2315 1.3572e+01     15.088     0.6780 0.0000e+00
     14.000     8.2970    31.1398   10.21089  106.39876    24.2073 1.6709e+01     14.091     0.7428 0.0000e+00
     13.000     8.3215    31.1124   10.20237  106.35034    24.1816 2.0694e+01     13.278     0.6943 0.0000e+00
     12.000     8.3347    31.0792   10.22778  106.66081    24.1504 2.5972e+01     12.221     0.7038 0.0000e+00
     11.000     8.3356    31.0671   10.26253  107.07326    24.1390 3.2768e+01     11.215     0.6629 0.0000e+00
     10.000     8.3425    31.0658   10.31633  107.86800    24.1376 4.1258e+01     10.166     0.6744 0.0000e+00
      9.000     8.3511    31.0592   10.42020  109.09494    24.1315 5.1122e+01      9.128     0.7367 0.0000e+00
      8.000     8.3612    31.0512   10.35330  108.47482    24.1240 6.4296e+01      8.098     0.6896 0.0000e+00
      7.000     8.4119    31.0391   10.21566  107.03000    24.1129 8.1683e+01      7.006     0.6876 0.0000e+00
      6.000     8.4548    30.9779   10.34900  104.47634    24.0580 1.0200e+02      6.022     0.7173 0.0000e+00
      5.000     8.4812    30.9312   11.40737  103.57415    24.0156 1.2862e+02      5.095     0.7502 0.0000e+00
      4.000     8.5021    30.9004   11.77150  103.17802    23.9875 1.5590e+02      4.169     0.7567 0.0000e+00
      3.000     8.5880    30.8764   11.88947  103.49148    23.9654 2.1212e+02      3.376     0.7892 0.0000e+00
      2.000     8.6817    30.8029   11.93624  103.55960    23.8968 2.8980e+02      2.585     0.7126 0.0000e+00
      1.000     8.7382    30.7066 -9.990e-29 -9.990e-29    23.8048 7.6669e+02      1.686     0.5520 0.0000e+00
