* Sea-Bird SBE19plus Data File:
* FileName = C:\data\otf\2007\ctd-07138.hex
* Software Version 1.55
* Temperature SN =  5061
* Conductivity SN =  5061
* System UpLoad Time = Aug 15 2007 17:32:12
* ds
* SeacatPlus V 1.6a  SERIAL NO. 5061    15 Aug 2007  15:31:53
* vbatt = 10.9, vlith =  8.7, ioper =  61.6 ma, ipump =  57.5 ma, 
* iext01 =  95.2 ma
* iext23 =  58.1 ma
* 
* status = not logging
* number of scans to average = 1
* samples = 153039, free = 288466, casts = 154
* mode = profile, minimum cond freq = 3000, pump delay = 60 sec
* autorun = no, ignore magnetic switch = no
* battery type = alkaline, battery cutoff =  7.3 volts
* pressure sensor = strain gauge, range = 870.0
* SBE 38 = no, Gas Tension Device = no
* Ext Volt 0 = yes, Ext Volt 1 = yes, Ext Volt 2 = yes, Ext Volt 3 = yes
* echo commands = yes
* output format = raw HEX
* S>
* 
* SeacatPlus V 1.6a  SERIAL NO. 5061    15 Aug 2007  15:32:18
* temperature:  05-oct-06
*     TA0 = 1.254184e-03
*     TA1 = 2.596730e-04
*     TA2 = 5.165612e-07
*     TA3 = 1.318931e-07
*     TOFFSET = 0.000000e+00
* conductivity:  05-oct-06
*     G = -9.978144e-01
*     H = 1.555200e-01
*     I = -4.839108e-04
*     J = 6.121100e-05
*     CF0 = 2.539936e+03
*     CPCOR = -9.570000e-08
*     CTCOR = 3.250000e-06
*     CSLOPE = 1.000000e+00
* pressure S/N = 2362539, range = 870 psia:  24-aug-06
*     PA0 = 2.171091e-01
*     PA1 = 2.647085e-03
*     PA2 = 1.419397e-11
*     PTCA0 = 5.242437e+05
*     PTCA1 = 7.545345e+00
*     PTCA2 = -1.835354e-01
*     PTCB0 = 2.537125e+01
*     PTCB1 = -1.750000e-03
*     PTCB2 = 0.000000e+00
*     PTEMPA0 = -5.753989e+01
*     PTEMPA1 = 5.235813e+01
*     PTEMPA2 = -4.015521e-02
*     POFFSET = 0.000000e+00
* volt 0: offset = -4.682842e-02, slope = 1.249147e+00
* volt 1: offset = -4.695158e-02, slope = 1.248145e+00
* volt 2: offset = -4.685263e-02, slope = 1.248783e+00
* volt 3: offset = -4.690316e-02, slope = 1.249508e+00
*     EXTFREQSF = 1.000002e+00
* dh
* cast 138 27 Jul 2007 10:52:50 samples 135770 to 136747, avg = 1, stop = mag switch
* S> 
# nquan = 10
# nvalues = 137                         
# units = specified
# name 0 = depSM: Depth [salt water, m]
# name 1 = tv290C: Temperature [ITS-90, deg C]
# name 2 = sal00: Salinity [PSU]
# name 3 = sbeox0Mg/L: Oxygen, SBE 43 [mg/l]
# name 4 = sbeox0PS: Oxygen, SBE 43 [% saturation]
# name 5 = sigma-t00: Density [sigma-t, Kg/m^3 ]
# name 6 = par: PAR/Irradiance, Biospherical/Licor
# name 7 = prdM: Pressure, Strain Gauge [db]
# name 8 = flECO-AFL: Fluorescence, Wetlab ECO-AFL/FL [mg/m^3]
# name 9 = flag: flag
# span 0 =      1.000,     71.000       
# span 1 =     8.4352,    10.6771       
# span 2 =    28.7250,    31.6502       
# span 3 =    8.45102,    9.48816       
# span 4 =   90.19267,  100.82587       
# span 5 =    21.9794,    24.5812       
# span 6 = 1.5478e+00, 3.6764e+02       
# span 7 =      1.078,     71.507       
# span 8 =     0.7463,     1.2707       
# span 9 = 0.0000e+00, 0.0000e+00       
# interval = meters: 1                  
# start_time = Jul 27 2007 10:52:50
# bad_flag = -9.990e-29
# sensor 0 = Frequency 0  temperature, 5061, 05-Oct-06
# sensor 1 = Frequency 1  conductivity, 5061, 05-Oct-06, cpcor = -9.5700e-08
# sensor 2 = Pressure Number
# sensor 3 = Extrnl Volt  0  irradiance (PAR), primary, 4751, 08/10/06
# sensor 4 = Extrnl Volt  1  Oxygen, SBE, primary, 1081, 10/24/06
# sensor 5 = Extrnl Volt  2  WET Labs, ECO_AFL
# sensor 6 = Extrnl Volt  3  userpoly 0, 0627, 10/11/06
# datcnv_date = Oct 15 2007 14:49:53, 5.37e
# datcnv_in = I:\bob d\OTF_GEM\2007\ctd-07138.hex I:\Willette\OTF\CTD\5061.con
# datcnv_skipover = 0
# filter_date = Oct 15 2007 15:02:42, 5.37e
# filter_in = I:\Willette\OTF\CTD\2007\CTD Data\ctd-07138.cnv
# filter_low_pass_tc_A = 1.000
# filter_low_pass_tc_B = 0.150
# filter_low_pass_A_vars = prdM
# filter_low_pass_B_vars =
# loopedit_date = Oct 15 2007 15:06:59, 5.37e
# loopedit_in = I:\Willette\OTF\CTD\2007\CTD Data\ctd-07138.cnv
# loopedit_minVelocity = 0.250                                                                                            
# loopedit_surfaceSoak: minDepth = 5.0, maxDepth = 20, useDeckPress = 1                                                   
# loopedit_excl_bad_scans = yes
# alignctd_date = Oct 15 2007 15:14:24, 5.37e
# alignctd_in = I:\Willette\OTF\CTD\2007\CTD Data\ctd-07138.cnv
# alignctd_adv = tv290C 0.500, sbeox0Mg/L 4.000, sbeox0PS 4.000                                                                                                                                                                      
# binavg_date = Oct 15 2007 15:18:53, 5.37e
# binavg_in = I:\Willette\OTF\CTD\2007\CTD Data\ctd-07138.cnv
# binavg_bintype = meters
# binavg_binsize = 1
# binavg_excl_bad_scans = yes
# binavg_skipover = 0
# binavg_surface_bin = no, min = 0.000, max = 0.000, value = 0.000
# file_type = ascii
*END*
      5.000     9.7943    30.3046    8.45102   90.19267    23.3060 1.0545e+02      5.013     1.2672 0.0000e+00
      6.000     9.7236    30.5090    8.58358   91.54599    23.4891 8.5870e+01      6.139     1.2707 0.0000e+00
      7.000     9.6743    30.5386    8.62316   91.91917    23.5179 7.0205e+01      7.132     1.2448 0.0000e+00
      8.000     9.6338    30.5944    8.59404   91.41277    23.5686 5.6444e+01      8.108     1.1602 0.0000e+00
      9.000     9.5641    30.6401    8.64505   91.66606    23.6116 4.6406e+01      9.056     1.0466 0.0000e+00
     10.000     9.5186    30.7286    8.72238   92.38789    23.6913 3.8460e+01      9.939     0.9731 0.0000e+00
     11.000     9.4794    30.8055    8.69962   92.05561    23.7590 3.1094e+01     11.090     0.9375 0.0000e+00
     12.000     9.3134    30.8383    8.70361   92.04116    23.7931 2.5842e+01     12.212     0.8984 0.0000e+00
     13.000     9.1182    31.0739    8.73337   92.34421    24.0113 2.1760e+01     13.026     0.8565 0.0000e+00
     14.000     9.0477    31.2619    8.73322   92.25630    24.1827 1.7925e+01     14.096     0.8289 0.0000e+00
     15.000     8.9842    31.2944    8.80537   92.95205    24.2151 1.5221e+01     15.101     0.8591 0.0000e+00
     16.000     8.9639    31.3612    8.75753   92.34074    24.2751 1.2760e+01     16.159     0.8729 0.0000e+00
     17.000     8.9225    31.3724    8.76280   92.27960    24.2864 1.0899e+01     17.131     0.8145 0.0000e+00
     18.000     8.8606    31.4536    8.84876   93.12745    24.3602 9.2519e+00     18.114     0.7938 0.0000e+00
     19.000     8.7940    31.4894    8.87487   93.32931    24.3976 8.0126e+00     19.284     0.7734 0.0000e+00
     20.000     8.7317    31.5026    8.83145   92.77671    24.4168 7.1427e+00     20.322     0.7790 0.0000e+00
     21.000     8.6994    31.5208    8.91644   93.66263    24.4376 6.1276e+00     21.118     0.7815 0.0000e+00
     22.000     8.6800    31.5817    8.96020   94.12685    24.4900 5.2031e+00     22.314     0.7726 0.0000e+00
     23.000     8.6378    31.5481    8.84113   92.82598    24.4673 4.6057e+00     23.424     0.7995 0.0000e+00
     24.000     8.6121    31.5602    8.85384   92.93064    24.4816 4.1026e+00     24.203     0.7856 0.0000e+00
     25.000     8.5999    31.5832    8.91732   93.59489    24.5029 3.6398e+00     25.028     0.7776 0.0000e+00
     26.000     8.6020    31.6396    8.94424   93.88669    24.5486 3.2044e+00     26.329     0.7740 0.0000e+00
     27.000     8.5856    31.5824    8.91542   93.55418    24.5034 2.9445e+00     27.381     0.7861 0.0000e+00
     28.000     8.5635    31.5960    8.94899   93.88314    24.5177 2.7047e+00     28.173     0.7978 0.0000e+00
     29.000     8.5612    31.6202    9.01023   94.52336    24.5388 2.4878e+00     29.119     0.7946 0.0000e+00
     30.000     8.5628    31.6247    8.98099   94.23197    24.5419 2.3115e+00     30.350     0.7969 0.0000e+00
     31.000     8.5471    31.6121    8.82746   92.60047    24.5334 2.1830e+00     31.362     0.7996 0.0000e+00
     32.000     8.5366    31.6174    8.81119   92.42534    24.5395 2.0716e+00     32.199     0.7714 0.0000e+00
     33.000     8.5388    31.6459    8.88817   93.23872    24.5627 1.9688e+00     33.256     0.7788 0.0000e+00
     34.000     8.5403    31.6238    8.90726   93.42461    24.5444 1.8926e+00     34.491     0.7825 0.0000e+00
     35.000     8.5349    31.6174    8.95436   93.91241    24.5403 1.8355e+00     35.298     0.7803 0.0000e+00
     36.000     8.5364    31.6275    8.98214   94.20360    24.5485 1.7810e+00     36.262     0.7910 0.0000e+00
     37.000     8.5345    31.6221    8.94860   93.85523    24.5440 1.7395e+00     37.395     0.7860 0.0000e+00
     38.000     8.5291    31.6208    8.95292   93.88847    24.5439 1.7064e+00     38.349     0.7853 0.0000e+00
     39.000     8.5264    31.6237    9.01481   94.53151    24.5467 1.6769e+00     39.305     0.7769 0.0000e+00
     40.000     8.5293    31.6265    9.02263   94.60186    24.5487 1.6526e+00     40.437     0.7852 0.0000e+00
     41.000     8.5254    31.6189    9.06894   95.07539    24.5428 1.6348e+00     41.485     0.7947 0.0000e+00
     42.000     8.5214    31.6176    9.14517   95.87251    24.5424 1.6203e+00     42.366     0.7975 0.0000e+00
     43.000     8.5210    31.6220    9.21173   96.56260    24.5463 1.6065e+00     43.363     0.7782 0.0000e+00
     44.000     8.5152    31.6051    9.25226   96.97325    24.5335 1.5960e+00     44.433     0.7915 0.0000e+00
     45.000     8.5136    31.6084    9.28265   97.27854    24.5367 1.5873e+00     45.438     0.8177 0.0000e+00
     46.000     8.5107    31.6082    9.29883   97.43561    24.5367 1.5804e+00     46.350     0.7901 0.0000e+00
     47.000     8.5032    31.6106    9.30949   97.55291    24.5394 1.5742e+00     47.498     0.7696 0.0000e+00
     48.000     8.4960    31.6166    9.31416   97.57849    24.5455 1.5706e+00     48.415     0.7853 0.0000e+00
     49.000     8.4893    31.6201    9.33013   97.73791    24.5492 1.5659e+00     49.403     0.7690 0.0000e+00
     50.000     8.4916    31.6210    9.34591   97.89830    24.5499 1.5625e+00     50.557     0.7463 0.0000e+00
     51.000     8.4763    31.6215    9.35559   97.99977    24.5513 1.5598e+00     51.491     0.7470 0.0000e+00
     52.000     8.4735    31.6291    9.36376   98.07136    24.5586 1.5579e+00     52.460     0.7576 0.0000e+00
     53.000     8.4714    31.6309    9.36628   98.08195    24.5605 1.5563e+00     53.584     0.7739 0.0000e+00
     54.000     8.4714    31.6310    9.36702   98.10078    24.5607 1.5550e+00     54.475     0.7787 0.0000e+00
     55.000     8.4625    31.6300    9.37758   98.22481    24.5603 1.5532e+00     55.501     0.7903 0.0000e+00
     56.000     8.4569    31.6381    9.38398   98.30095    24.5683 1.5525e+00     56.481     0.7758 0.0000e+00
     57.000     8.4659    31.6373    9.38524   98.30996    24.5670 1.5519e+00     57.607     0.7753 0.0000e+00
     58.000     8.4715    31.6328    9.38822   98.33562    24.5624 1.5514e+00     58.501     0.7662 0.0000e+00
     59.000     8.4729    31.6291    9.39452   98.38754    24.5588 1.5504e+00     59.627     0.7725 0.0000e+00
     60.000     8.4716    31.6310    9.39364   98.38046    24.5607 1.5501e+00     60.585     0.7649 0.0000e+00
     61.000     8.4650    31.6315    9.39621   98.40059    24.5616 1.5497e+00     61.501     0.7717 0.0000e+00
     62.000     8.4616    31.6362    9.39908   98.42795    24.5662 1.5494e+00     62.637     0.7701 0.0000e+00
     63.000     8.4592    31.6342    9.39530   98.38435    24.5645 1.5492e+00     63.627     0.7866 0.0000e+00
     64.000     8.4581    31.6374    9.40347   98.46888    24.5676 1.5487e+00     64.549     0.7852 0.0000e+00
     65.000     8.4561    31.6377    9.40757   98.50743    24.5681 1.5490e+00     65.641     0.7786 0.0000e+00
     66.000     8.4550    31.6390    9.40347   98.46511    24.5694 1.5487e+00     66.658     0.7844 0.0000e+00
     67.000     8.4531    31.6388    9.40758   98.49859    24.5693 1.5484e+00     67.603     0.7807 0.0000e+00
     68.000     8.4526    31.6403    9.41074   98.50657    24.5708 1.5485e+00     68.697     0.7743 0.0000e+00
     69.000     8.4523    31.6399    9.41149   98.51517    24.5704 1.5480e+00     69.697     0.7835 0.0000e+00
     70.000     8.4384    31.6416    9.40881   98.48895    24.5729 1.5483e+00     70.569     0.7874 0.0000e+00
     71.000     8.4352    31.6502    9.40872   98.49406    24.5812 1.5483e+00     71.507     0.8078 0.0000e+00
     70.000     8.4370    31.6494    9.41693   98.59877    24.5801 1.5478e+00     70.574     0.8465 0.0000e+00
     69.000     8.4394    31.6500    9.42057   98.63962    24.5805 1.5482e+00     69.559     0.9352 0.0000e+00
     68.000     8.4446    31.6472    9.41499   98.57987    24.5777 1.5482e+00     68.703     0.8311 0.0000e+00
     67.000     8.4496    31.6433    9.41675   98.59230    24.5737 1.5482e+00     67.686     0.8451 0.0000e+00
     66.000     8.4499    31.6419    9.41846   98.61795    24.5723 1.5482e+00     66.523     0.8591 0.0000e+00
     65.000     8.4479    31.6420    9.41492   98.58275    24.5726 1.5486e+00     65.694     0.8324 0.0000e+00
     64.000     8.4475    31.6440    9.41713   98.60473    24.5746 1.5486e+00     64.594     0.8537 0.0000e+00
     63.000     8.4514    31.6413    9.41794   98.61520    24.5718 1.5484e+00     63.567     0.8061 0.0000e+00
     62.000     8.4512    31.6410    9.41792   98.61526    24.5714 1.5486e+00     62.625     0.8252 0.0000e+00
     61.000     8.4513    31.6412    9.41283   98.56949    24.5717 1.5488e+00     61.552     0.8213 0.0000e+00
     60.000     8.4521    31.6409    9.41354   98.57637    24.5713 1.5492e+00     60.538     0.8097 0.0000e+00
     59.000     8.4533    31.6404    9.41623   98.60250    24.5708 1.5495e+00     59.631     0.8294 0.0000e+00
     58.000     8.4572    31.6388    9.41837   98.63007    24.5690 1.5499e+00     58.456     0.8437 0.0000e+00
     57.000     8.4554    31.6376    9.41442   98.60633    24.5680 1.5507e+00     57.569     0.8272 0.0000e+00
     56.000     8.4547    31.6392    9.41404   98.60628    24.5696 1.5511e+00     56.542     0.8114 0.0000e+00
     55.000     8.4588    31.6390    9.41672   98.62601    24.5692 1.5524e+00     55.517     0.8313 0.0000e+00
     54.000     8.4684    31.6344    9.41587   98.61394    24.5642 1.5533e+00     54.530     0.8064 0.0000e+00
     53.000     8.4677    31.6308    9.41012   98.55935    24.5609 1.5546e+00     53.522     0.8175 0.0000e+00
     52.000     8.4633    31.6330    9.40811   98.54011    24.5632 1.5559e+00     52.507     0.8296 0.0000e+00
     51.000     8.4640    31.6349    9.40847   98.54241    24.5650 1.5579e+00     51.490     0.7859 0.0000e+00
     50.000     8.4669    31.6332    9.41251   98.58179    24.5632 1.5605e+00     50.498     0.7826 0.0000e+00
     49.000     8.4662    31.6321    9.41448   98.59944    24.5622 1.5636e+00     49.464     0.8064 0.0000e+00
     48.000     8.4658    31.6328    9.40549   98.50442    24.5629 1.5677e+00     48.431     0.7930 0.0000e+00
     47.000     8.4633    31.6334    9.40907   98.53621    24.5636 1.5724e+00     47.500     0.8214 0.0000e+00
     46.000     8.4629    31.6337    9.41082   98.57063    24.5639 1.5781e+00     46.410     0.8029 0.0000e+00
     45.000     8.4603    31.6339    9.41556   98.66326    24.5644 1.5856e+00     45.458     0.8021 0.0000e+00
     44.000     8.4629    31.6367    9.41692   98.68868    24.5669 1.5944e+00     44.428     0.7801 0.0000e+00
     43.000     8.4888    31.6256    9.41156   98.63429    24.5549 1.6053e+00     43.443     0.8000 0.0000e+00
     42.000     8.4967    31.6151    9.41902   98.72179    24.5444 1.6190e+00     42.384     0.8021 0.0000e+00
     41.000     8.4981    31.6158    9.41614   98.68324    24.5450 1.6354e+00     41.382     0.7737 0.0000e+00
     40.000     8.5017    31.6125    9.41155   98.64580    24.5417 1.6552e+00     40.413     0.7773 0.0000e+00
     39.000     8.4978    31.6143    9.41347   98.67234    24.5436 1.6784e+00     39.385     0.7922 0.0000e+00
     38.000     8.5061    31.6119    9.42174   98.77429    24.5409 1.7078e+00     38.296     0.7869 0.0000e+00
     37.000     8.5082    31.6091    9.41921   98.76615    24.5383 1.7443e+00     37.422     0.7876 0.0000e+00
     36.000     8.5181    31.6046    9.41426   98.72799    24.5335 1.7882e+00     36.194     0.7840 0.0000e+00
     35.000     8.5277    31.5977    9.41945   98.78354    24.5266 1.8417e+00     35.350     0.7903 0.0000e+00
     34.000     8.5324    31.5934    9.41148   98.70451    24.5222 1.9057e+00     34.261     0.7865 0.0000e+00
     33.000     8.5341    31.5925    9.41442   98.74409    24.5213 1.9885e+00     33.340     0.8108 0.0000e+00
     32.000     8.5365    31.5910    9.41948   98.80475    24.5198 2.0828e+00     32.277     0.7916 0.0000e+00
     31.000     8.5419    31.5887    9.41705   98.78084    24.5173 2.2031e+00     31.355     0.8003 0.0000e+00
     30.000     8.5451    31.5854    9.41603   98.77481    24.5141 2.3544e+00     30.225     0.8191 0.0000e+00
     29.000     8.5471    31.5846    9.41584   98.78251    24.5132 2.5404e+00     29.295     0.8144 0.0000e+00
     28.000     8.5477    31.5841    9.42300   98.86693    24.5127 2.7514e+00     28.277     0.7905 0.0000e+00
     27.000     8.5584    31.5788    9.41462   98.79480    24.5072 3.0191e+00     27.244     0.8009 0.0000e+00
     26.000     8.5618    31.5761    9.41569   98.83394    24.5045 3.3500e+00     26.267     0.7967 0.0000e+00
     25.000     8.5754    31.5674    9.42480   98.96535    24.4958 3.7615e+00     25.234     0.8109 0.0000e+00
     24.000     8.5976    31.5538    9.41873   98.94065    24.4821 4.2236e+00     24.213     0.8051 0.0000e+00
     23.000     8.6106    31.5463    9.41553   98.94001    24.4744 4.8181e+00     23.253     0.8043 0.0000e+00
     22.000     8.6338    31.5284    9.39930   98.82287    24.4565 5.5331e+00     22.192     0.8049 0.0000e+00
     21.000     8.6606    31.5147    9.40579   98.92383    24.4424 6.3788e+00     21.197     0.7960 0.0000e+00
     20.000     8.6873    31.4942    9.40207   98.93125    24.4216 7.4388e+00     20.195     0.8177 0.0000e+00
     19.000     8.7099    31.4856    9.41521   99.14000    24.4123 8.7245e+00     19.198     0.8262 0.0000e+00
     18.000     8.7465    31.4658    9.42368   99.32029    24.3914 1.0155e+01     18.178     0.8255 0.0000e+00
     17.000     8.8014    31.4337    9.41401   99.31180    24.3582 1.1956e+01     17.164     0.8430 0.0000e+00
     16.000     8.8560    31.3893    9.41539   99.45660    24.3147 1.3950e+01     16.089     0.8603 0.0000e+00
     15.000     8.9180    31.3388    9.41398   99.51967    24.2668 1.6305e+01     15.140     0.8589 0.0000e+00
     14.000     8.9719    31.2771    9.40936   99.53701    24.2105 1.9025e+01     14.153     0.8666 0.0000e+00
     13.000     9.0263    31.2034    9.40209   99.70222    24.1437 2.2485e+01     13.118     0.8842 0.0000e+00
     12.000     9.1156    31.1206    9.39493   99.97244    24.0694 2.6081e+01     12.115     0.8802 0.0000e+00
     11.000     9.3768    30.8480    9.36898   99.76477    23.8188 3.0817e+01     11.071     0.9016 0.0000e+00
     10.000     9.4535    30.7068    9.36025   99.86413    23.6889 3.6671e+01     10.036     0.9524 0.0000e+00
      9.000     9.5001    30.6948    9.36405   99.96402    23.6759 4.3715e+01      9.099     0.9525 0.0000e+00
      8.000     9.5693    30.6374    9.35989  100.02861    23.6183 5.2281e+01      8.028     0.9995 0.0000e+00
      7.000     9.6176    30.5846    9.34750   99.93707    23.5708 6.3779e+01      7.078     1.0957 0.0000e+00
      6.000     9.6898    30.4775    9.34038   99.96955    23.4750 7.6692e+01      6.045     1.1705 0.0000e+00
      5.000     9.7302    30.4186    9.34039  100.08422    23.4220 9.5869e+01      5.022     1.2459 0.0000e+00
      4.000     9.8109    30.3070    9.34406  100.35040    23.3250 1.1053e+02      4.077     1.2364 0.0000e+00
      3.000     9.9553    30.0822    9.35085  100.82587    23.1305 1.3942e+02      2.965     1.1494 0.0000e+00
      2.000    10.1838    29.6446    9.23379  100.03321    22.7563 1.8192e+02      2.078     1.0045 0.0000e+00
      1.000    10.6771    28.7250    9.48816   98.43689    21.9794 3.6764e+02      1.078     0.8315 0.0000e+00
